# Ac
# Form Factors from Chantler Tables
# DOI: https://dx.doi.org/10.18434/T4HS32
# automatically retrived 2019-02-28 using URL https://physics.nist.gov/cgi-bin/ffast/ffast.pl

# For f_rel the second term, which is 3/5th of the Cromer-Liberman value, is used as suggested by Chantler.
# Real and imaginary part of the formfactors are: f'(E)=f1(E)+f_rel+f_NT and f''(E)=f2(E)
# see also original publication:  https://doi.org/10.1063/1.555974

# Z = 89
# f_rel = -1.3722 e/atom  (Relativistic correction estimate)
# f_NT = -0.01914 e/atom (Nuclear Thomson correction)


#        E (eV)            f1 (e/atom)          f2 (e/atom)     
         10.69               19.8738                0.0         
        11.42761              19.731                0.0         
        12.21612             19.5519                0.0         
        13.05903             19.3217                0.0         
        13.9601              19.0154                0.0         
        14.92335             18.5856                0.0         
        15.95306             17.9255                0.0         
        17.05382             16.7021                0.0         
        18.03405             13.6882                0.0         
        18.23053             11.7526                0.0         
        18.31008             10.1151                0.0         
        18.38369             5.74963                0.0         
        18.4941              10.4311               8.6357       
        18.77013             14.5434               8.2993       
        19.48844             17.8163               7.5041       
        20.83314             19.9561               6.2727       
        22.27063              20.682               5.2323       
        23.8073               20.412               4.3595       
        24.6814              19.2537               3.9502       
        25.05918              17.228               3.7897       
        25.15992             14.6607               3.7485       
        25.31103             17.4902               8.8114       
        25.45001             18.8207               8.6675       
        25.6888              20.0133               8.4277       
        27.20606             22.6397               7.0963       
        29.08327              23.617               5.8464       
        31.09002             23.9791               4.9015       
        33.23523             24.0796               4.1683       
        35.52846             24.0336               3.5844       
        37.97993             23.8786               3.1087       
        39.65432             23.6941               2.8454       
        40.26127             23.5483               2.7596       
        40.42313             23.4121               2.7375       
        40.60054             23.5007               2.9602       
        40.66591             23.5279                2.95        
        41.27286             23.5965               2.8585       
        43.40198              23.512               2.5728       
        46.39671              23.237               2.2463       
        49.59809             22.8483               1.972        
        53.02035             22.3395               1.7381       
        56.67876             21.6788               1.5367       
        60.58959             20.7723               1.3621       
        64.77028             19.4632               1.2104       
        69.23942             17.3383               1.0785       
        74.01695             12.6956              0.96397       
        75.40014             9.64471              0.93502       
        76.55423             3.21458              0.91214       
        76.86198             -4.10506             0.90623       
        77.32361             3.08047               15.066       
        78.4777              9.02096               14.994       
        79.12411             10.3552               14.955       
        81.47337             11.8469               14.817       
        82.72042             9.52342               14.747       
        83.05296             5.52554               14.729       
        83.55178             10.3287               23.173       
        84.58368             14.6493               23.176       
        84.79882             15.2205               23.176       
        90.41995             23.9206               22.422       
        96.65893             29.7628               20.186       
        103.3284             33.4927               16.702       
        110.4581             35.2903               13.035       
        118.0797              35.704               9.8284       
        126.2272             35.2888               7.3068       
        134.9368             34.4492               5.4453       
        144.2475             33.4164               4.1195       
        154.2005             32.2488               3.1919       
        159.9698             31.4171               2.808        
        162.4183             30.7548               2.6703       
        163.0713             30.1621               2.6358       
        164.0507             30.6338               3.6417       
        164.8404             30.8022               3.5977       
        166.4992             30.9145               3.5094       
        176.2144             30.6429               3.0824       
        188.3732             29.9615               2.7103       
        201.3709             29.0378               2.4479       
        202.048              28.9721               2.437        
        205.1405             28.5233                2.39        
        205.9652              28.132               2.3782       
        207.2023             28.4398               3.0481       
        210.2948             28.6015               2.9782       
        215.2655             28.5224               2.8768       
        230.1188             27.9004               2.639        
        245.997              27.0176               2.4705       
        256.0302             26.3471               2.3966       
        259.949              26.0025               2.373        
        260.994              25.8305               2.3671       
        262.5616             25.8246               2.5572       
        262.9708             25.8135               2.5552       
        266.4804             25.6364               2.5393       
        281.1158             24.5672               2.4903       
        289.1658             23.8229               2.4729       
        293.5918              23.306               2.4656       
        294.772              23.0852               2.4639       
        296.5424             22.9742               2.656        
        297.8648             22.8596               2.669        
        300.5128             22.5818               2.6985       
        300.9684             22.5289               2.7041       
        302.424              22.3454               2.7229       
        303.6397             22.1388                2.74        
        305.4634             21.9987               2.9188       
        310.0226             21.5241               3.0429       
        321.2482             20.1342               3.5042       
        343.4143             17.0858               5.364        
        367.1099             14.1668               8.8327       
        392.4405             12.2832               13.853       
        419.5189             12.1882               19.787       
        448.4657             14.1098               25.675       
        479.4098             17.7163               30.651       
         500.0               20.5578               33.072       
         502.5               20.9129               33.319       
        505.0125             21.2708               33.556       
       507.53756             21.6309               33.785       
       510.07525             21.9932               34.006       
       512.62563             22.3573               34.217       
       515.18875             22.7228               34.42        
        517.7647             23.0894               34.614       
       520.35352              23.457               34.799       
       522.95529             23.8251               34.976       
       525.57007             24.1934               35.145       
       528.19792             24.5618               35.304       
       530.83891             24.9299               35.456       
        533.4931             25.2973               35.599       
       536.16057             25.6639               35.734       
       538.84137             26.0293               35.86        
       541.53558             26.3933               35.979       
       544.24325             26.7556               36.09        
       546.96447             27.1159               36.192       
       549.69929             27.4739               36.287       
       552.44779             27.8293               36.375       
       555.21003             28.1819               36.454       
       557.98608             28.5313               36.527       
       560.77601             28.8773               36.592       
       563.57989             29.2195               36.65        
       566.39779             29.5577               36.701       
       569.22978             29.8916               36.745       
       572.07593             30.2207               36.782       
        574.9363             30.5447               36.812       
       577.81099             30.8632               36.836       
       580.70004             31.1758               36.854       
       583.60354             31.4821               36.865       
       586.52156             31.7815               36.871       
       589.45417             32.0734               36.87        
       592.40144             32.3573               36.863       
       595.36345             32.6322               36.851       
       598.34026             32.8975               36.834       
       601.33196             33.1518               36.81        
       604.33862              33.394               36.782       
       607.36032             33.6223               36.749       
       610.39712             33.8345               36.71        
        613.4491             34.0278               36.667       
       616.51635             34.1978               36.619       
       619.59893             34.3407               36.566       
       622.69693             34.4428               36.509       
       625.81041             34.4897               36.447       
       628.93946             34.4485               36.381       
       632.08416             34.2369               36.312       
       635.24458              33.496               36.238       
       636.64076             32.0703               36.204       
       637.35929             32.1221               39.221       
        638.4208             33.5266               39.202       
       641.61291             34.8988               39.142       
       644.82097             35.6393               39.08        
       648.04508             36.1952               39.013       
        651.2853              36.655               38.944       
       654.54173             37.0503               38.872       
       657.81444             37.3935               38.797       
       661.10351             37.6871               38.718       
       664.40903             37.9238               38.638       
       667.73107             38.0795               38.554       
       671.06973             38.0741               38.468       
       674.42508             37.1905               38.38        
        674.518              37.0715               38.377       
       675.28199             37.1469               40.21        
        677.7972             38.5905               40.153       
       681.18619             39.3788               40.075       
       684.59212              39.96                39.995       
       688.01508             40.4583               39.913       
       691.45515             40.9098               39.829       
       694.91243             41.3303               39.743       
       698.38699             41.7282               39.656       
       701.87893             42.1086               39.567       
       705.38832             42.4747               39.476       
       708.91526             42.8287               39.383       
       712.45984             43.1722               39.289       
       716.02214             43.5062               39.193       
       719.60225             43.8317               39.095       
       723.20026             44.1494               38.995       
       726.81626             44.4598               38.894       
       730.45034             44.7635               38.792       
        734.1026             45.0609               38.688       
       737.77311             45.3523               38.583       
       741.46197              45.638               38.477       
       745.16928             45.9184               38.369       
       748.89513             46.1936               38.26        
       752.63961             46.4639               38.15        
        756.4028             46.7291               38.039       
       760.18482             46.9895               37.926       
       763.98574             47.2451               37.812       
       767.80567             47.4959               37.697       
        771.6447             47.7419               37.581       
       775.50292             47.9833               37.464       
       779.38044             48.2201               37.346       
       783.27734             48.4522               37.227       
       787.19373             48.6809               37.107       
       791.12969             48.9038               36.987       
       795.08534             49.1221               36.865       
       799.06077             49.3356               36.743       
       803.05607             49.5445               36.621       
       807.07135             49.7485               36.498       
       811.10671             49.9475               36.374       
       815.16224             50.1415               36.25        
       819.23806             50.3303               36.126       
       823.33425             50.5137               36.001       
       827.45092             50.6914               35.876       
       831.58817              50.863               35.751       
       835.74611             51.0282               35.625       
       839.92484             51.1864               35.499       
       844.12447             51.3369               35.373       
       848.34509             51.4788               35.247       
       852.58682             51.6109               35.121       
       856.84975             51.7315               34.995       
        861.134              51.8383               34.869       
       865.43967             51.9286               34.743       
       869.76687             51.9947               34.616       
        874.1157             52.0225               34.489       
       878.48628             51.9931               34.361       
       882.87871             51.8525               34.233       
        887.2931              51.41                34.106       
       889.19009             50.6616               34.051       
       890.80989             50.7289               36.159       
       891.72957             51.2871               36.133       
       896.18822             52.3436               36.007       
       900.66916             52.8979               35.881       
        905.1725             53.3184               35.756       
       909.69837             53.6747               35.63        
       914.24686             54.0175               35.505       
       918.81809              54.31                35.38        
       923.41218             54.5838               35.255       
       928.02924             54.8434               35.131       
       932.66939             55.0916               35.007       
       937.33274             55.3305               34.883       
        942.0194             55.5617               34.759       
        946.7295             55.7862               34.636       
       951.46315              56.005               34.513       
       956.22046             56.2188               34.391       
       961.00156             56.4283               34.269       
       965.80657             56.6341               34.148       
        970.6356             56.8366               34.027       
       975.48878             57.0363               33.906       
       980.36623             57.2337               33.786       
       985.26806             57.4294               33.666       
        990.1944              57.624               33.547       
       995.14537             57.8185               33.428       
       1000.1211             58.0156               33.31        
       1005.1217             58.2161               33.175       
       1010.1473             58.3998               33.04        
        1015.198              58.576               32.906       
        1020.274              58.747               32.771       
       1025.3754             58.9135               32.636       
       1030.5023             59.0759               32.502       
       1035.6548             59.2341               32.368       
       1040.8331             59.3879               32.234       
       1046.0372             59.5369                32.1        
       1051.2674             59.6805               31.966       
       1056.5238             59.8173               31.833       
       1061.8064             59.9448                31.7        
       1067.1154              60.058               31.567       
        1072.451             60.1425               31.435       
       1077.8132             60.1234                31.3        
       1078.9287             60.0524               31.27        
       1081.0714             60.1242               31.672       
       1083.2023             60.3467               31.615       
       1088.6183             60.6471               31.47        
       1094.0614             60.8712               31.326       
       1099.5317             61.0691               31.182       
       1105.0294             61.2526               31.039       
       1110.5545             61.4267               30.896       
       1116.1073             61.5938               30.753       
       1121.6878             61.7553               30.611       
       1127.2963             61.9122               30.47        
       1132.9328              62.065               30.329       
       1138.5974             62.2145               30.191       
       1144.2904             62.3612               30.048       
       1150.0119             62.5043               29.903       
       1155.7619              62.644               29.758       
       1161.5407             62.7808               29.614       
       1167.3484             62.9146               29.471       
       1173.1852             63.0457               29.328       
       1179.0511             63.1742               29.186       
       1184.9464             63.2995               29.027       
       1190.8711             63.4205               28.864       
       1196.8254             63.5372               28.702       
       1202.8096             63.6497               28.541       
       1208.8236             63.7578               28.381       
       1214.8677             63.8615               28.223       
       1220.9421             63.9598               28.051       
       1227.0468             64.0516               27.878       
