# As
# Form Factors from Chantler Tables
# DOI: https://dx.doi.org/10.18434/T4HS32
# automatically retrived 2019-02-27 using URL https://physics.nist.gov/cgi-bin/ffast/ffast.pl
#
# Z = 33
# f_rel = -0.19087 e/atom  (Relativistic correction estimate)
# f_NT = -0.0079737 e/atom (Nuclear Thomson correction)


#        E (eV)            f1 (e/atom)          f2 (e/atom)     
         10.69               5.97388                0.0         
        11.42761             5.95892                0.0         
        12.21612             5.94172                0.0         
        13.05903             5.92193                0.0         
        13.9601              5.89914                0.0         
        14.92335             5.87286                0.0         
        15.95306             5.84252                0.0         
        17.05382             5.80742                0.0         
        18.23053             5.76673                0.0         
        19.48844             5.71947                0.0         
        20.83314             5.66438                0.0         
        22.27063             5.59995                0.0         
        23.8073              5.52424                0.0         
        25.45001             5.43479                0.0         
        27.20606             5.32828                0.0         
        29.08327             5.20019                0.0         
        31.09002             5.04396                0.0         
        33.23523             4.84923                0.0         
        35.52846             4.59747                0.0         
        37.97993             4.24541                0.0         
         40.376              3.66212                0.0         
        40.60054             3.56057                0.0         
         40.994              3.26814                0.0         
        41.1588              2.89512                0.0         
         41.406              3.18075              0.67799       
         42.024              3.36584              0.72651       
        43.40198             3.36274              0.84453       
        46.39671             3.13444               1.1515       
        49.59809             2.84875               1.5444       
        53.02035             2.55769               2.0278       
        56.67876             2.28864               2.6072       
        60.58959             2.06592               3.2835       
        64.77028              1.9131               4.0522       
        69.23942             1.85256               4.9031       
        74.01695              1.9041               5.8203       
        79.12411             2.08345               6.7827       
        84.58368             2.40093               7.7653       
        90.41995             2.86035               8.7406       
        96.65893             3.45832               9.6801       
        103.3284             4.18397               10.556       
        110.4581             5.01853               11.345       
        118.0797             5.93419               12.024       
        126.2272             6.88034               12.577       
        134.9368             7.77925               12.994       
         137.69              7.98349               13.092       
        139.7975             7.99944               13.158       
        140.3595             7.81981               13.174       
        141.2025             8.12885               13.658       
         143.31              8.52176               13.733       
        143.472              8.54386               13.739       
        144.2475             8.64108               13.765       
        145.668              8.77001               13.809       
        146.2536             8.74386               13.827       
        147.132              8.95813               14.057       
        149.328              9.32082               14.127       
        154.2005             9.96447               14.262       
        164.8404             11.2098               14.463       
        176.2144             12.4105               14.537       
        188.3732             13.5313               14.477       
         199.43              14.2923               14.33        
        201.3709              14.335               14.297       
        202.4825             14.2878               14.278       
        203.2965             14.0489               14.263       
        204.5175              14.454               14.839       
         207.57               14.965               14.787       
        215.2655             15.7674               14.637       
        230.1188             16.9797               14.296       
        245.997              18.0578               13.877       
        262.9708             19.0331               13.395       
        281.1158              19.913               12.864       
        300.5128             20.7016               12.298       
        321.2482             21.4026               11.708       
        343.4143             22.0202               11.107       
        367.1099              22.559               10.502       
        392.4405              23.024               9.901        
        419.5189             23.4203               9.3104       
        448.4657             23.7497               8.7349       
        479.4098             24.0227               8.1779       
        512.4891             24.2405               7.6422       
        547.8508             24.4063               7.1294       
        585.6525             24.5228               6.6402       
        626.0625             24.5907               6.1736       
        669.2609             24.6075               5.7303       
        715.4399             24.5717               5.3113       
        764.8052             24.4792               4.9173       
        817.5768              24.318               4.5204       
        873.9896             24.0651               4.1474       
         900.0               24.4656               3.9929       
         904.5               24.4435               3.9672       
        909.0225             24.4209               3.9416       
       913.56761             24.3978               3.9163       
       918.13545             24.3741               3.891        
       922.72613             24.3499               3.866        
       927.33976              24.325               3.8411       
       931.97646             24.2997               3.8164       
       936.63634             24.2737               3.7919       
       941.31952             24.2472               3.7675       
       946.02612             24.2202               3.7432       
       950.75625             24.1925               3.7192       
       955.51003             24.1643               3.6953       
       960.28758             24.1355               3.6715       
       965.08902             24.1062               3.648        
       969.91446             24.0763               3.6245       
       974.76404             24.0458               3.6013       
       979.63786             24.0149               3.5782       
       984.53605             23.9834               3.5552       
       989.45873             23.9515               3.5325       
       994.40602             23.9192               3.5098       
       999.37805             23.8865               3.4874       
       1004.3749             23.8509               3.4595       
       1009.3968             23.8095               3.4312       
       1014.4438             23.7656               3.403        
        1019.516             23.7197               3.3752       
       1024.6136             23.6722               3.3476       
       1029.7367             23.6231               3.3203       
       1034.8853             23.5725               3.2932       
       1040.0598             23.5201               3.2664       
       1045.2601             23.4662               3.2399       
       1050.4864             23.4105               3.2135       
       1055.7388             23.3531               3.1875       
       1061.0175             23.2939               3.1616       
       1066.3226             23.2327               3.136        
       1071.6542             23.1696               3.1107       
       1077.0125             23.1045               3.0856       
       1082.3975             23.0371               3.0607       
       1087.8095             22.9676               3.036        
       1093.2486             22.8956               3.0116       
       1098.7148             22.8212               2.9874       
       1104.2084             22.7442               2.9634       
       1109.7294             22.6644               2.9397       
       1115.2781             22.5817               2.9161       
       1120.8545             22.4959               2.8928       
       1126.4587             22.4069               2.8697       
        1132.091             22.3144               2.8468       
       1137.7515             22.2182               2.8241       
       1143.4402              22.118               2.8016       
       1149.1574             22.0137               2.7794       
       1154.9032             21.9049               2.7573       
       1160.6777             21.7912               2.7354       
       1166.4811             21.6724               2.7137       
       1172.3135             21.5479               2.6923       
       1178.1751             21.4173               2.671        
        1184.066             21.2802               2.6499       
       1189.9863             21.1358               2.629        
       1195.9362             20.9834               2.6083       
       1201.9159             20.8225               2.5878       
       1207.9255             20.6519               2.5674       
       1213.9651             20.4706               2.5473       
        1220.035             20.2775               2.5273       
       1226.1351             20.0709               2.5075       
       1232.2658             19.8492               2.4879       
       1238.4271             19.6102               2.4685       
       1244.6193             19.3513               2.4492       
       1250.8424             19.0692               2.4301       
       1257.0966             18.7596               2.4112       
       1263.3821             18.4174               2.3925       
        1269.699             18.0351               2.3739       
       1276.0475             17.6029               2.3555       
       1282.4277             17.1067               2.3372       
       1288.8399             16.5252               2.3191       
        1295.284             15.8238               2.3012       
       1301.7605             14.9407               2.2834       
       1308.2693             13.7469               2.2658       
       1314.8106             11.8809               2.2483       
       1321.3847             7.00551               2.231        
       1322.9793             -1.02828              2.2269       
       1323.2206             -1.19194              11.702       
       1327.9916             9.86152               11.634       
       1334.6316             12.1906               11.541       
       1341.3047             13.1749               11.449       
       1348.0112              13.477               11.357       
       1354.7513             12.7785               11.267       
       1358.4739             8.07519               11.217       
       1358.7261             8.02227               15.893       
        1361.525             12.9746               15.841       
       1368.3327             15.3326               15.714       
       1375.1743             16.6108               15.589       
       1382.0502              17.552               15.465       
       1388.9605             18.3128               15.342       
       1395.9053             18.9565               15.22        
       1402.8848             19.5156               15.099       
       1409.8992              20.01                14.979       
       1416.9487             20.4522               14.86        
       1424.0335              20.851               14.742       
       1431.1536             21.2128               14.625       
       1438.3094             21.5421               14.508       
       1445.5009             21.8422               14.393       
       1452.7284             22.1155               14.279       
       1459.9921             22.3634               14.165       
        1467.292             22.5867               14.053       
       1474.6285              22.785               13.941       
       1482.0016             22.9569               13.83        
       1489.4117              23.099               13.72        
       1496.8587             23.2045               13.612       
        1504.343             23.2595               13.503       
       1511.8647             23.2307               13.396       
        1519.424             23.0055               13.29        
       1525.1383             22.1676               13.211       
       1527.0212             21.6078               15.08        
       1527.8616             22.2101               15.068       
       1534.6563              23.467               14.969       
       1542.3295             24.0566               14.858       
       1550.0412             24.4774               14.748       
       1557.7914             24.8232               14.639       
       1565.5804             25.1247               14.531       
       1573.4083             25.3961               14.424       
       1581.2753             25.6449               14.318       
       1589.1817              25.876               14.212       
       1597.1276             26.0924               14.108       
       1605.1132             26.2963               14.004       
       1613.1388             26.4898               13.902       
       1621.2045             26.6742               13.801       
       1629.3105             26.8504               13.701       
       1637.4571             27.0193               13.601       
       1645.6443             27.1815               13.502       
       1653.8726             27.3375               13.404       
       1662.1419             27.4878               13.307       
       1670.4526             27.6329               13.211       
       1678.8049             27.7732               13.115       
       1687.1989             27.9088               13.021       
       1695.6349             28.0403               12.927       
       1704.1131             28.1678               12.833       
       1712.6337             28.2917               12.741       
       1721.1968             28.4121               12.649       
       1729.8028             28.5289               12.557       
       1738.4518             28.6423               12.465       
       1747.1441             28.7524               12.374       
       1755.8798             28.8595               12.284       
       1764.6592             28.9637               12.194       
       1773.4825              29.065               12.104       
       1782.3499             29.1635               12.015       
       1791.2617             29.2593               11.927       
        1800.218             29.3525               11.839       
       1809.2191             29.4432               11.752       
       1818.2652             29.5316               11.666       
       1827.3565             29.6177               11.58        
       1836.4933             29.7016               11.495       
       1845.6757             29.7834               11.411       
       1854.9041             29.8632               11.327       
       1864.1786             29.9411               11.244       
       1873.4995             30.0171               11.162       
        1882.867             30.0913               11.08        
       1892.2814             30.1637               10.998       
       1901.7428             30.2345               10.918       
       1911.2515             30.3037               10.838       
       1920.8077             30.3712               10.758       
       1930.4118             30.4373               10.679       
       1940.0638              30.502               10.601       
       1949.7642             30.5652               10.523       
        1959.513             30.6271               10.446       
       1969.3105             30.6878               10.37        
       1979.1571             30.7473               10.294       
       1989.0529             30.8056               10.218       
       1998.9981             30.8624               10.141       
       2008.9931             30.9178               10.066       
       2019.0381             30.9719               9.9906       
       2029.1333             31.0246               9.9161       
        2039.279             31.0762               9.8421       
       2049.4754             31.1265               9.7686       
       2059.7227             31.1757               9.6957       
       2070.0213             31.2237               9.6233       
       2080.3714             31.2706               9.5514       
       2090.7733             31.3165               9.4801       
       2101.2272             31.3613               9.4093       
       2111.7333             31.4051               9.339        
        2122.292             31.4479               9.2692       
       2132.9034             31.4898               9.1999       
        2143.568             31.5308               9.1311       
       2154.2858             31.5708               9.0628       
       2165.0572             31.6099               8.9951       
       2175.8825             31.6482               8.9278       
       2186.7619             31.6856               8.861        
       2197.6957             31.7222               8.7947       
       2208.6842              31.758               8.7289       
       2219.7276              31.793               8.6636       
       2230.8263             31.8272               8.5988       
       2241.9804             31.8607               8.5344       
       2253.1903             31.8935               8.4705       
       2264.4562             31.9255               8.4071       
       2275.7785             31.9569               8.3442       
       2287.1574             31.9875               8.2817       
       2298.5932             32.0175               8.2197       
       2310.0862             32.0468               8.1582       
       2321.6366             32.0755               8.0971       
       2333.2448             32.1036               8.0365       
        2344.911             32.1311               7.9763       
       2356.6356              32.158               7.9166       
       2368.4187             32.1843               7.8574       
       2380.2608              32.21                7.7985       
       2392.1621             32.2352               7.7402       
        2404.123             32.2598               7.6822       
       2416.1436              32.284               7.6247       
       2428.2243             32.3076               7.5677       
       2440.3654             32.3307               7.511        
       2452.5672             32.3533               7.4548       
       2464.8301             32.3754               7.3991       
       2477.1542             32.3971               7.3437       
        2489.54              32.4184               7.2888       
       2501.9877             32.4392               7.2343       
       2514.4976             32.4595               7.1802       
       2527.0701             32.4795               7.1265       
