# At
# Form Factors from Chantler Tables
# DOI: https://dx.doi.org/10.18434/T4HS32
# automatically retrived 2019-02-27 using URL https://physics.nist.gov/cgi-bin/ffast/ffast.pl
#
# Z = 85
# f_rel = -2.0891 e/atom  (Relativistic correction estimate)
# f_NT = -0.018874 e/atom (Nuclear Thomson correction)


#        E (eV)            f1 (e/atom)          f2 (e/atom)     
        6.119614            -0.241657               0.0         
        6.213281             -2.69168               0.0         
        6.238259             -5.59099               0.0         
        6.275726              -2.609               5.6874       
        6.369394            -0.0210624             5.5961       
        8.850419             2.63911               4.0899       
        8.985884             0.921561              4.0368       
        9.022009             -1.18057              4.0229       
        9.076195              1.0068               8.165        
        9.21166              2.96014               8.0974       
         10.69               6.82483               7.4081       
        11.42761             7.64511               7.0693       
        12.21612             8.30377               6.7047       
        13.05903             8.83986               6.315        
        13.9601              9.26885               5.9041       
        14.92335             9.59618               5.4778       
        15.95306             9.82142               5.043        
        17.05382             9.93647               4.6073       
        18.23053              9.9048               4.1779       
        18.9522              9.72269               3.9337       
        19.24229             9.43058               3.8396       
        19.31964             9.06984               3.8149       
        19.43568             9.46307               4.4914       
        19.48844             9.56904               4.4669       
        19.72576             9.80054               4.3587       
        20.83314             10.0552               3.8991       
        22.27063             9.99527               3.3974       
        23.8073              9.75723               2.9578       
        25.45001             9.38258               2.572        
        27.20606             8.87291               2.2342       
        29.08327             8.21025               1.939        
        31.09002             7.35213               1.6817       
        33.23523             6.21609               1.4583       
        35.52846             4.61874               1.2649       
        36.90857             3.28524               1.1666       
        37.4735              2.46771               1.1297       
        37.62415             2.01636               1.1202       
        37.85012             1.99677               1.6773       
        37.97993             1.92704               1.7019       
        38.41505             1.54296               1.7979       
        40.60054             -1.22929              2.7299       
        40.76232             -1.47646              2.8398       
        41.38623             -2.54627              3.3371       
        41.55261             -2.98891              3.4911       
        41.80217             -3.18942              4.1313       
        42.42608             -3.93531              4.9135       
        43.40198             -5.16803              6.3762       
        46.39671             -7.92998              12.625       
        49.59809             -7.50469              21.002       
        53.02035             -2.81212              29.113       
        56.67876             5.29944               34.45        
        60.58959             14.6343               35.751       
        64.77028             22.9647               33.389       
        69.23942             28.9886               28.736       
        74.01695             32.4658               23.282       
        79.12411             33.8329               18.092       
        84.58368             33.7493               13.704       
        90.41995             32.8061               10.255       
        96.65893             31.4073               7.666        
        103.3284             29.6988               5.7761       
        106.2575             28.7473               5.1509       
        107.8839             27.7849               4.846        
        108.3176              26.911               4.7693       
        108.9681             27.6345               6.2229       
        110.4581             28.0662               5.9294       
        110.5945             28.0768               5.9037       
        118.0797             27.5554               4.7243       
        126.2272             26.5188               3.845        
        134.9368             25.2183               3.2157       
        135.7294              25.057               3.1698       
        137.8069             24.3871               3.0565       
        138.3609             23.7735               3.028        
        139.1919             24.2878               4.0882       
        141.2694             24.6047               3.945        
        144.2475              24.594               3.7579       
        154.2005             24.0093               3.2571       
        164.8404             23.1583               2.8777       
        176.2144             22.1143               2.5933       
        181.9046             21.5086               2.485        
        184.6888             21.1439               2.4386       
        185.4313             20.9843               2.4268       
        186.545              20.9282               2.5574       
        186.7657             20.9114               2.5542       
        188.3732             20.7458               2.532        
        189.3292             20.6186               2.5193       
        189.6243             20.5723               2.5155       
        190.3866              20.396               2.5057       
        191.5301             20.3563               2.6836       
        193.1341             20.2266               2.6841       
        194.3887             20.0964               2.6863       
        196.0902              19.884               2.6921       
        196.8785             19.7317               2.6959       
        198.061              19.6674               2.843        
        201.0171             19.3973               2.895        
        201.3709             19.3611               2.9023       
        215.2655             17.7779               3.4011       
        230.1188              16.018               4.4301       
        245.997              14.2798               6.0819       
        262.9708              12.791               8.3924       
        281.1158             11.7914               11.29        
        300.5128             11.4749               14.601       
        321.2482             11.9469               18.085       
        343.4143             13.2036               21.484       
        367.1099             15.1565               24.568       
        392.4405             17.6291               27.162       
        419.5189             20.3878               29.159       
        448.4657             23.0912               30.52        
        465.8769             24.2237               31.015       
        473.0077              24.057               31.157       
        474.9092             23.2562               31.189       
        477.7615             24.4648               33.142       
        479.4098              24.926               33.18        
        484.8923             25.9263               33.297       
         500.0                30.041               33.537       
         502.5               30.3027               33.567       
        505.0125             30.5564               33.593       
       507.53756             30.8023               33.617       
       510.07525             31.0402               33.639       
       512.62563             31.2695               33.658       
       515.18875             31.4893               33.674       
        517.7647              31.698               33.688       
       520.35352             31.8926                33.7        
       522.95529             32.0683               33.709       
       525.57007             32.2157               33.715       
       528.19792             32.3124               33.719       
       530.83891             32.2834               33.721       
       532.81612             31.7932               33.72        
        533.4931             31.7529               34.879       
       533.58393             31.8604               34.879       
       536.16057             32.8451               34.889       
       538.84137             33.3256               34.898       
       541.53558             33.7128               34.903       
       544.24325             34.0594               34.907       
       546.96447             34.3829               34.908       
       549.69929             34.6912               34.907       
       552.44779             34.9885               34.903       
       555.21003             35.2774               34.898       
       557.98608             35.5611               34.89        
       560.77601             35.8375               34.88        
       563.57989             36.1091               34.868       
       566.39779             36.3765               34.855       
       569.22978             36.6401               34.839       
       572.07593             36.9494               34.821       
        574.9363             37.2065               34.801       
       577.81099             37.4606               34.779       
       580.70004              37.712               34.755       
       583.60354             37.9608               34.73        
       586.52156             38.2072               34.703       
       589.45417             38.4513               34.674       
       592.40144             38.6893               34.643       
       595.36345             38.9289               34.61        
       598.34026             39.1663               34.575       
       601.33196             39.4015               34.538       
       604.33862             39.6345               34.499       
       607.36032             39.8652               34.458       
       610.39712             40.0938               34.416       
        613.4491             40.3201               34.371       
       616.51635             40.5442               34.325       
       619.59893             40.7661               34.278       
       622.69693             40.9857               34.228       
       625.81041             41.2031               34.177       
       628.93946             41.4181               34.124       
       632.08416             41.6308               34.07        
       635.24458             41.8412               34.014       
        638.4208             42.0491               33.957       
       641.61291             42.2546               33.898       
       644.82097             42.4577               33.837       
       648.04508             42.6581               33.775       
        651.2853              42.856               33.712       
       654.54173             43.0512               33.647       
       657.81444             43.2444               33.581       
       661.10351             43.4355               33.513       
       664.40903             43.6228               33.444       
       667.73107             43.8067               33.374       
       671.06973             43.9871               33.302       
       674.42508             44.1641               33.229       
        677.7972             44.3375               33.155       
       681.18619             44.5071               33.08        
       684.59212             44.6727               33.004       
       688.01508             44.8339               32.927       
       691.45515             44.9904               32.849       
       694.91243             45.1417               32.77        
       698.38699             45.2874               32.69        
       701.87893             45.4266               32.609       
       705.38832             45.5585               32.527       
       708.91526             45.6818               32.445       
       712.45984             45.7948               32.361       
       716.02214              45.895               32.277       
       719.60225             45.9789               32.192       
       723.20026             46.0406               32.107       
       726.81626              46.07                32.02        
       730.45034              46.047               31.933       
        734.1026             45.9211               31.846       
       737.77311             45.4815               31.757       
       738.91221             45.0819               31.73        
       741.08781             45.1853               33.669       
       741.46197             45.3903               33.66        
       745.16928             46.3649               33.572       
       748.89513             46.8823               33.484       
       752.63961             47.2773               33.396       
        756.4028             47.6136               33.307       
       760.18482              47.915               33.218       
       763.98574             48.1931               33.128       
       767.80567             48.4543               33.038       
        771.6447             48.7026               32.948       
       775.50292             48.9408               32.856       
       779.38044             49.1706               32.765       
       783.27734             49.3933               32.672       
       787.19373             49.6101               32.58        
       791.12969             49.8217               32.487       
       795.08534             50.0289               32.394       
       799.06077             50.2322               32.301       
       803.05607             50.4321               32.207       
       807.07135             50.6275               32.105       
       811.10671             50.8184               32.001       
       815.16224             51.0051               31.897       
       819.23806             51.1879               31.793       
       823.33425             51.3668               31.688       
       827.45092              51.542               31.583       
       831.58817             51.7135               31.477       
       835.74611             51.8814               31.371       
       839.92484             52.0456               31.265       
       844.12447              52.206               31.159       
       848.34509             52.3626               31.052       
       852.58682             52.5151               30.946       
       856.84975              52.663               30.839       
        861.134              52.8058               30.732       
       865.43967             52.9424               30.625       
       869.76687             53.0708               30.518       
        874.1157             53.1874               30.412       
       878.48628             53.2827               30.305       
       882.87871              53.321               30.198       
       884.58238             53.2762               30.157       
        887.2931             53.3566               30.504       
       887.41758             53.3728               30.501       
       891.72957             53.7019               30.399       
       896.18822             53.9268               30.295       
       900.66916             54.1232               30.191       
        905.1725             54.3051               30.082       
       909.69837             54.4778               29.972       
       914.24686             54.6439               29.863       
       918.81809             54.8049               29.753       
       923.41218             54.9617               29.644       
       928.02924              55.115               29.535       
       932.66939             55.2652               29.426       
       937.33274             55.4128               29.318       
        942.0194             55.5579               29.21        
        946.7295             55.7008               29.102       
       951.46315             55.8418               28.994       
       956.22046             55.9811               28.887       
       961.00156             56.1189               28.78        
       965.80657             56.2554               28.673       
        970.6356             56.3908               28.567       
       975.48878             56.5256               28.462       
       980.36623             56.6599               28.357       
       985.26806             56.7944               28.252       
        990.1944             56.9296               28.148       
       995.14537             57.0667               28.044       
       1000.1211              57.21                27.94        
       1005.1217              57.435               27.766       
       1010.1473              57.629               27.593       
        1015.198             57.7974               27.422       
        1020.274             57.9427               27.253       
       1025.3754             58.0643               27.085       
       1030.5023              58.157               26.918       
       1035.6548             58.2008               26.752       
       1040.6559             58.0646               26.594       
       1040.8331             58.0446               26.588       
       1043.3442             58.1475               27.057       
       1046.0372             58.4062               26.973       
       1051.2674             58.6761               26.812       
       1056.5238              58.874               26.652       
       1061.8064             59.0424               26.494       
       1067.1154             59.1935               26.337       
        1072.451             59.3325               26.181       
       1077.8132             59.4622               26.027       
       1083.2023             59.5844               25.873       
       1088.6183             59.7003               25.721       
       1094.0614             59.8107               25.571       
       1099.5317             59.9162               25.421       
       1105.0294             60.0173               25.273       
       1110.5545             60.1145               25.125       
       1116.1073             60.2081               24.979       
       1121.6878             60.2983               24.835       
       1127.2963             60.3854               24.691       
       1132.9328             60.4696               24.548       
       1138.5974              60.551               24.407       
       1144.2904             60.6299               24.267       
       1150.0119             60.7063               24.128       
       1155.7619             60.7804               23.99        
       1161.5407             60.8524               23.853       
       1167.3484             60.9222               23.717       
       1173.1852             60.9901               23.583       
       1179.0511              61.056               23.449       
       1184.9464             61.1201               23.317       
       1190.8711             61.1825               23.185       
       1196.8254             61.2432               23.055       
       1202.8096             61.3023               22.926       
       1208.8236             61.3599               22.797       
       1214.8677              61.416               22.67        
       1220.9421             61.4706               22.544       
