# Au
# Form Factors from Chantler Tables
# DOI: https://dx.doi.org/10.18434/T4HS32
# automatically retrived 2019-02-27 using URL https://physics.nist.gov/cgi-bin/ffast/ffast.pl
#
# Z = 79
# f_rel = -1.7226 e/atom  (Relativistic correction estimate)
# f_NT = -0.017382 e/atom (Nuclear Thomson correction)


#        E (eV)            f1 (e/atom)          f2 (e/atom)     
        6.65451              2.88762                0.0         
        6.756365             2.24634                0.0         
        6.783526             1.53627                0.0         
        6.824268             2.22782               1.3641       
        6.926123             2.79003               1.3448       
        8.142217             2.53588               1.2374       
        8.266843              2.0654               1.2519       
        8.300076             1.54542               1.2564       
        8.349926             2.05749               2.2605       
        8.474552             2.46605               2.2498       
         10.69               1.80913               2.9953       
        11.42761             1.37655               3.6048       
        12.21612             0.965328              4.406        
        13.05903             0.624303              5.4098       
        13.9601              0.411793              6.6185       
        14.92335             0.394079              8.0179       
        15.95306             0.639962              9.5717       
        17.05382             1.21194               11.217       
        18.23053             2.15504               12.867       
        19.48844             3.48533               14.413       
        20.83314              5.2549               15.74        
        22.27063             7.25321               16.739       
        23.8073              9.45427               17.327       
        25.45001             11.7727               17.457       
        27.20606             13.9985               17.13        
        29.08327             16.0474               16.382       
        31.09002             17.8149               15.29        
        33.23523             19.2362               13.958       
        35.52846              20.284               12.491       
        37.97993             20.9586               10.985       
        40.60054             21.2841               9.5236       
        43.40198             21.2906               8.1647       
        46.39671             20.9863               6.9419       
        49.59809             20.2798               5.8697       
         52.626              18.6073               5.044        
        53.02035             18.0425               4.9482       
        53.4315              16.8898               4.8509       
        53.6463              14.8645               4.8011       
        53.9685              16.9775               8.693        
         54.774              18.7833               8.3716       
        56.67876             20.0123               7.675        
        60.58959             20.6579               6.4803       
        64.77028             20.5746               5.468        
        69.23942             19.8937               4.6215       
         70.266               19.541               4.4554       
        71.3415              18.6908               4.2912       
        71.6283              17.7435               4.249        
        72.0585              18.6642               6.0093       
         73.134              19.4156               5.8445       
        74.01695             19.6412               5.7157       
        79.12411             19.8939               5.0728       
         81.144              19.7664               4.8498       
         82.386              19.4939               4.7156       
        82.7172              19.1793               4.6802       
         83.214              19.4857               5.2303       
         84.456              19.7029               5.0814       
        84.58368             19.7089               5.0663       
         84.672               19.712               5.0559       
         85.968              19.6317               4.9054       
        86.3136              19.4433               4.866        
         86.832              19.6712               5.2064       
         88.128              19.8761               5.0542       
        90.41995             19.9742               4.7971       
        96.65893             19.8306               4.2015       
        103.3284             19.4054               3.7598       
        105.644              19.2152               3.6471       
        107.261              19.0492               3.5794       
        107.6922             18.9666               3.5628       
        108.339              18.9635               3.6344       
        109.956              18.8743               3.5821       
        110.4581             18.8392               3.5674       
        118.0797              18.219               3.4351       
        126.2272             17.4805               3.4634       
        134.9368              16.655               3.6848       
        144.2475             15.7662               4.1139       
        154.2005             14.8392               4.7809       
        164.8404              13.92                5.7275       
        176.2144             13.0583               6.9748       
        188.3732              12.332               8.5341       
        201.3709             11.8252               10.395       
        215.2655             11.6285               12.519       
        230.1188             11.8101               14.836       
        245.997              12.4275               17.247       
        262.9708             13.5101               19.637       
        281.1158             15.0151               21.884       
        300.5128             16.8766               23.873       
        321.2482             18.9208               25.508       
        327.222              19.4424               25.888       
        332.2305             19.7143               26.177       
        333.5661             19.5627               26.249       
        335.5695             20.0379               26.917       
        340.578              20.7741               27.197       
        343.4143             21.1074               27.345       
         344.96               21.276               27.421       
         350.24              21.7325               27.665       
        351.648               21.684               27.726       
         353.76               22.137               28.234       
         359.04              22.9277               28.458       
        367.1099             23.9458               28.755       
        392.4405             26.8316               29.359       
        419.5189             29.5822               29.557       
        448.4657             32.1468               29.402       
        479.4098             34.4526               28.958       
         500.0               36.8596               28.559       
         502.5               36.9982               28.506       
        505.0125             37.1334               28.452       
       507.53756              37.265               28.398       
       510.07525             37.3927               28.342       
       512.62563              37.516               28.286       
       515.18875             37.6344               28.228       
        517.7647             37.7473               28.17        
       520.35352             37.8538               28.111       
       522.95529             37.9528               28.051       
       525.57007             38.0427               27.99        
       528.19792             38.1212               27.928       
       530.83891              38.185               27.866       
        533.4931             38.2285               27.802       
       536.16057             38.2419               27.738       
       538.84137             38.2052               27.673       
       541.53558             38.0654               27.608       
       544.24325             37.5543               27.542       
       544.69646             37.3074               27.531       
       546.10359             37.3821               29.209       
       546.96447             37.8633               29.188       
       549.69929             38.5583               29.123       
       552.44779             38.9711               29.058       
       555.21003             39.2936               28.991       
       557.98608             39.5706               28.924       
       560.77601             39.8197               28.856       
       563.57989             40.0498               28.788       
       566.39779             40.2659               28.72        
       569.22978             40.4711               28.65        
       572.07593             40.6676               28.581       
        574.9363             40.8568               28.51        
       577.81099             41.0397               28.439       
       580.70004             41.2172               28.368       
       583.60354             41.3899               28.296       
       586.52156             41.5581               28.224       
       589.45417             41.7223               28.152       
       592.40144             41.8828               28.079       
       595.36345             42.0397               28.005       
       598.34026             42.1933               27.931       
       601.33196             42.3436               27.857       
       604.33862             42.4907               27.783       
       607.36032             42.6347               27.708       
       610.39712             42.7755               27.632       
        613.4491              42.913               27.557       
       616.51635             43.0471               27.481       
       619.59893             43.1775               27.404       
       622.69693             43.3038               27.328       
       625.81041             43.4254               27.251       
       628.93946             43.5413               27.174       
       632.08416             43.6495               27.096       
       635.24458             43.7464               27.018       
        638.4208             43.8227               26.94        
       641.61291             43.8414               26.862       
       642.78595             43.7886               26.833       
       644.61406             43.8618               27.171       
       644.82097             43.8949               27.166       
       648.04508             44.1878               27.089       
        651.2853             44.3826               27.012       
       654.54173             44.5518               26.934       
       657.81444             44.7084               26.857       
       661.10351             44.8569               26.779       
       664.40903             44.9998               26.701       
       667.73107             45.1382               26.623       
       671.06973             45.2729               26.545       
       674.42508             45.4044               26.466       
        677.7972             45.5331               26.388       
       681.18619             45.6593               26.309       
       684.59212              45.783               26.23        
       688.01508             45.9045               26.151       
       691.45515             46.0238               26.072       
       694.91243             46.1409               25.993       
       698.38699             46.2559               25.914       
       701.87893             46.3689               25.834       
       705.38832             46.4797               25.755       
       708.91526             46.5884               25.675       
       712.45984             46.6948               25.596       
       716.02214              46.799               25.516       
       719.60225             46.9006               25.436       
       723.20026             46.9995               25.356       
       726.81626             47.0954               25.276       
       730.45034             47.1878               25.197       
        734.1026             47.2762               25.117       
       737.77311             47.3596               25.036       
       741.46197             47.4364               24.956       
       745.16928              47.504               24.876       
       748.89513             47.5571               24.796       
       752.63961             47.5825               24.716       
        756.4028             47.5268               24.636       
       757.59354             47.4426               24.611       
       760.00652             47.5088               25.095       
       760.18482             47.5372               25.092       
       763.98574             47.8657               25.012       
       767.80567             48.0626               24.933       
        771.6447             48.2251               24.854       
       775.50292             48.3711               24.775       
       779.38044             48.5071               24.695       
       783.27734             48.6363               24.616       
       787.19373             48.7605               24.537       
       791.12969             48.8808               24.458       
       795.08534             48.9978               24.379       
       799.06077             49.1121                24.3        
       803.05607             49.2241               24.221       
       807.07135             49.3341               24.141       
       811.10671             49.4422               24.063       
       815.16224             49.5487               23.984       
       819.23806             49.6537               23.905       
       823.33425             49.7573               23.826       
       827.45092             49.8596               23.747       
       831.58817             49.9607               23.668       
       835.74611             50.0607               23.59        
       839.92484             50.1597               23.511       
       844.12447             50.2577               23.433       
       848.34509             50.3547               23.354       
       852.58682             50.4508               23.276       
       856.84975             50.5461               23.197       
        861.134              50.6405               23.119       
       865.43967             50.7342               23.041       
       869.76687             50.8271               22.963       
        874.1157             50.9193               22.884       
       878.48628             51.0108               22.806       
       882.87871             51.1017               22.728       
        887.2931             51.1919               22.651       
       891.72957             51.2816               22.573       
       896.18822             51.3708               22.495       
       900.66916             51.4595               22.417       
        905.1725             51.5477               22.34        
       909.69837             51.6355               22.262       
       914.24686              51.723               22.185       
       918.81809             51.8101               22.108       
       923.41218              51.897               22.031       
       928.02924             51.9834               21.953       
       932.66939             52.0696               21.875       
       937.33274             52.1555               21.797       
        942.0194             52.2412               21.72        
        946.7295             52.3267               21.643       
       951.46315             52.4122               21.565       
       956.22046             52.4977               21.488       
       961.00156             52.5833               21.411       
       965.80657             52.6691               21.334       
        970.6356             52.7551               21.257       
       975.48878             52.8415               21.181       
       980.36623             52.9284               21.104       
       985.26806              53.016               21.028       
        990.1944             53.1045               20.952       
       995.14537             53.1943               20.876       
       1000.1211             53.2862               20.799       
       1005.1217             53.3772               20.696       
       1010.1473             53.4425               20.593       
        1015.198             53.5046               20.49        
        1020.274             53.5648               20.388       
       1025.3754             53.6233               20.286       
       1030.5023             53.6804               20.185       
       1035.6548             53.7361               20.084       
       1040.8331             53.7905               19.984       
       1046.0372             53.8437               19.884       
       1051.2674             53.8957               19.785       
       1056.5238             53.9595               19.686       
       1061.8064             54.0092               19.587       
       1067.1154             54.0578               19.49        
        1072.451             54.1054               19.392       
       1077.8132             54.1518               19.296       
       1083.2023             54.1973               19.199       
       1088.6183             54.2417               19.103       
       1094.0614              54.285               19.007       
       1099.5317             54.3271               18.911       
       1105.0294             54.3681               18.816       
       1110.5545              54.408               18.721       
       1116.1073             54.4468               18.627       
       1121.6878             54.4846               18.533       
       1127.2963             54.5214               18.44        
       1132.9328             54.5571               18.347       
       1138.5974             54.5918               18.255       
       1144.2904             54.6255               18.163       
       1150.0119             54.6582               18.071       
       1155.7619             54.6899               17.981       
       1161.5407             54.7207               17.89        
       1167.3484             54.7505                17.8        
       1173.1852             54.7793               17.711       
       1179.0511             54.8073               17.622       
       1184.9464             54.8343               17.533       
       1190.8711             54.8604               17.446       
       1196.8254             54.8856               17.358       
       1202.8096              54.91                17.271       
       1208.8236             54.9334               17.185       
       1214.8677              54.956               17.099       
       1220.9421             54.9777               17.013       
       1227.0468             54.9986               16.928       
        1233.182             55.0186               16.844       
       1239.3479             55.0378               16.759       
       1245.5447             55.0562               16.676       
       1251.7724             55.0738               16.593       
       1258.0312             55.0906               16.51        
       1264.3214             55.1066               16.428       
        1270.643             55.1219               16.347       
       1276.9962             55.1364               16.265       
       1283.3812             55.1502               16.185       
       1289.7981             55.1631               16.104       
       1296.2471             55.1753               16.024       
