# Bi
# Form Factors from Chantler Tables
# DOI: https://dx.doi.org/10.18434/T4HS32
# automatically retrived 2019-02-28 using URL https://physics.nist.gov/cgi-bin/ffast/ffast.pl

# For f_rel the second term, which is 3/5th of the Cromer-Liberman value, is used as suggested by Chantler.
# Real and imaginary part of the formfactors are: f'(E)=f1(E)+f_rel+f_NT and f''(E)=f2(E)
# see also original publication:  https://doi.org/10.1063/1.555974

# Z = 83
# f_rel = -1.1484 e/atom  (Relativistic correction estimate)
# f_NT = -0.018084 e/atom (Nuclear Thomson correction)


#        E (eV)            f1 (e/atom)          f2 (e/atom)     
        6.04651              1.28464                0.0         
        6.139059            -0.180675               0.0         
        6.163738             -1.91459               0.0         
        6.200758            -0.137486              3.402        
        6.293306              1.4089               3.3618       
         10.69               4.97863               2.2826       
        11.42761             4.97869               2.1596       
        12.21612             4.91679               2.0341       
        13.05903             4.76197               1.9063       
        13.9601              4.32198               1.7772       
        14.16222             3.93071               1.7493       
        14.21916             3.46074               1.7415       
        14.30456             3.94974               2.6458       
        14.51806              4.3586               2.5748       
        14.92335              4.5791               2.448        
        15.95306             4.63786               2.1658       
        17.05382             4.45056               1.9095       
        18.23053             4.09469               1.6789       
        19.48844             3.57158               1.4744       
        20.83314             2.85179               1.2942       
        22.27063             1.84894               1.136        
        23.8073              0.279116              0.997        
         23.912              0.127349             0.98848       
         24.278             -0.605839             0.95954       
        24.3756              -1.10786             0.95204       
         24.522             -0.940591              1.7065       
         24.888              -1.08707              1.8034       
        25.45001             -1.64041              1.9899       
         25.97               -2.28637              2.2093       
        26.3675              -2.93846              2.412        
        26.4735              -3.27904              2.4718       
        26.6325              -3.29644              2.9799       
         27.03               -3.63457              3.3173       
        27.20606             -3.82014              3.4805       
        29.08327             -5.89222              5.7491       
        31.09002             -7.62257              9.2212       
        33.23523             -8.35979              13.756       
        35.52846             -7.5755               18.92        
        37.97993             -5.00556              24.015       
        40.60054            -0.772435              28.271       
        43.40198             4.64125               31.078       
        46.39671             10.5467               32.139       
        49.59809              16.248               31.504       
        53.02035             21.2033               29.491       
        56.67876             25.1009               26.556       
        60.58959             27.8531               23.16        
        64.77028             29.5388               19.688       
        69.23942             30.3295               16.411       
        74.01695             30.4572               13.486       
        79.12411             30.0351               10.98        
        84.58368             29.2314               8.8954       
        90.41995              27.816               7.1994       
         90.944               27.606               7.0692       
         92.336               26.609               6.7387       
        92.7072               25.578               6.6542       
         93.264              26.5515               8.4652       
         94.656              27.2752               8.0859       
        96.65893             27.4823               7.5808       
        103.3284             27.1254               6.1948       
        110.4581             26.2374               5.1249       
        114.464              25.4904               4.6628       
        116.216               24.796               4.4852       
        116.6832             24.1212               4.4401       
        117.384               24.717               5.6135       
        118.0797             24.9747               5.5334       
        119.136               25.125               5.4159       
        126.2272             25.0157               4.7387       
        134.9368             24.4093               4.1073       
        144.2475              23.591               3.5964       
        154.2005             22.4846               3.1864       
        154.252              22.4774               3.1846       
        156.114              22.1808               3.1203       
        156.613              22.0759               3.1036       
        157.2426              21.858               3.083        
        158.187              21.8413               3.3158       
        158.662              21.7964               3.3071       
        159.1407             21.7049               3.2986       
        160.0965             21.6729               3.408        
        160.548               21.636               3.4013       
        161.0905              21.572               3.3937       
        161.7381             21.4279               3.3853       
        162.486              21.4394               3.5669       
        162.7095             21.4392               3.5665       
        164.8404             21.3246               3.567        
        165.138              21.3028               3.5678       
        176.2144             20.3011               3.7195       
        188.3732             19.1101               4.1589       
        201.3709             17.8619               4.9263       
        215.2655             16.6344               6.0678       
        230.1188             15.5253               7.6096       
        245.997               14.647               9.5459       
        262.9708             14.1138               11.83        
        281.1158             14.0267               14.375       
        300.5128             14.4493               17.058       
        321.2482             15.4066               19.738       
        343.4143             16.8702               22.267       
        367.1099              18.756               24.511       
        392.4405              20.922               26.362       
        419.5189             23.0901               27.747       
         431.2               23.7719               28.172       
         437.8               23.7625               28.37        
         439.56              23.2706               28.418       
         442.2               24.0733               29.716       
        448.4657             25.0378               29.921       
         448.8               25.0758               29.931       
        454.328              25.6187               30.093       
        461.282              26.0072               30.274       
        463.1364             25.7858               30.319       
        465.918              26.4552               31.184       
        472.872              27.4852               31.369       
        479.4098              28.236               31.525       
         500.0                 32.1                31.903       
         502.5               32.3386               31.937       
        505.0125             32.5759               31.97        
       507.53756             32.8121                32.0        
       510.07525             33.0473               32.028       
       512.62563             33.2815               32.054       
       515.18875             33.5148               32.078       
        517.7647             33.7472               32.098       
       520.35352             33.9786               32.117       
       522.95529             34.2089               32.133       
       525.57007             34.4383               32.147       
       528.19792             34.6666               32.158       
       530.83891             34.8938               32.168       
        533.4931             35.1199               32.174       
       536.16057             35.3449               32.179       
       538.84137             35.5688               32.181       
       541.53558             35.7915               32.181       
       544.24325             36.0129               32.179       
       546.96447             36.2332               32.174       
       549.69929             36.4521               32.168       
       552.44779             36.6698               32.159       
       555.21003             36.8861               32.148       
       557.98608              37.101               32.135       
       560.77601             37.3145               32.12        
       563.57989             37.5265               32.103       
       566.39779             37.7371               32.084       
       569.22978             37.9461               32.063       
       572.07593             38.1535               32.04        
        574.9363             38.3592               32.015       
       577.81099             38.5633               31.989       
       580.70004             38.7657               31.96        
       583.60354             38.9662               31.929       
       586.52156             39.1649               31.897       
       589.45417             39.3617               31.863       
       592.40144             39.5565               31.827       
       595.36345             39.7493               31.79        
       598.34026             39.9399               31.751       
       601.33196             40.1284               31.71        
       604.33862             40.3145               31.668       
       607.36032             40.4983               31.624       
       610.39712             40.6795               31.579       
        613.4491             40.8581               31.532       
       616.51635              41.034               31.483       
       619.59893             41.2068               31.433       
       622.69693             41.3766               31.382       
       625.81041              41.543               31.33        
       628.93946             41.7058               31.276       
       632.08416             41.8647               31.221       
       635.24458             42.0192               31.164       
        638.4208              42.169               31.106       
       641.61291             42.3134               31.046       
       644.82097             42.4516               30.986       
       648.04508             42.5827               30.924       
        651.2853             42.7053               30.86        
       654.54173             42.8177               30.796       
       657.81444             42.9172               30.73        
       661.10351             42.9999               30.663       
       664.40903             43.0593               30.594       
       667.73107             43.0839               30.525       
       671.06973             43.0497               30.455       
       674.42508             42.8903               30.383       
        677.7972             42.2211               30.311       
       678.09211             42.0486               30.304       
       679.70789             42.1317               32.165       
       681.18619              42.835               32.134       
       684.59212             43.5588               32.063       
       688.01508             44.0154               31.99        
       691.45515             44.3798               31.917       
       694.91243             44.6967               31.842       
       698.38699              44.984               31.768       
       701.87893              45.251               31.692       
       705.38832             45.5031               31.616       
       708.91526             45.7436               31.54        
       712.45984             45.9749               31.463       
       716.02214             46.1985               31.386       
       719.60225             46.4157               31.308       
       723.20026             46.6274               31.23        
       726.81626             46.8344               31.151       
       730.45034             47.0373               31.073       
        734.1026             47.2366               30.994       
       737.77311             47.4328               30.915       
       741.46197             47.6263               30.836       
       745.16928             47.8169               30.752       
       748.89513              48.003               30.66        
       752.63961             48.1852               30.568       
        756.4028             48.3634               30.476       
       760.18482             48.5379               30.383       
       763.98574             48.7087               30.291       
       767.80567             48.8759               30.197       
        771.6447             49.0392               30.104       
       775.50292             49.1987               30.01        
       779.38044             49.3538               29.916       
       783.27734             49.5042               29.822       
       787.19373             49.6475               29.721       
       791.12969             49.7815               29.619       
       795.08534             49.9021               29.517       
       799.06077             49.9987               29.414       
       803.05607             50.0244               29.312       
       804.18063             49.9786               29.283       
       806.41936              50.064               29.629       
       807.07135             50.1476               29.612       
       811.10671             50.4519               29.511       
       815.16224             50.6701               29.41        
       819.23806             50.8627               29.308       
       823.33425              51.042               29.207       
       827.45092             51.2126               29.105       
       831.58817             51.3768               29.003       
       835.74611             51.5359               28.902       
       839.92484             51.6907                28.8        
       844.12447             51.8418               28.698       
       848.34509             51.9894               28.596       
       852.58682              52.134               28.494       
       856.84975             52.2756               28.393       
        861.134              52.4144               28.291       
       865.43967             52.5506               28.19        
       869.76687             52.6841               28.089       
        874.1157              52.815               27.988       
       878.48628             52.9434               27.887       
       882.87871             53.0692               27.786       
        887.2931             53.1922               27.686       
       891.72957             53.3124               27.585       
       896.18822             53.4296               27.485       
       900.66916             53.5434               27.386       
        905.1725             53.6534               27.286       
       909.69837             53.7589               27.187       
       914.24686             53.8587               27.088       
       918.81809             53.9511               26.99        
       923.41218             54.0323               26.892       
       928.02924             54.0948               26.794       
       932.66939              54.116               26.697       
       936.87713             53.9831               26.609       
       937.33274             53.9226                26.6        
       939.52286             54.0533               27.094       
        942.0194             54.3016               27.044       
        946.7295             54.5639               26.948       
       951.46315             54.7639               26.854       
       956.22046             54.9407               26.76        
       961.00156             55.1053               26.666       
       965.80657             55.2626               26.573       
        970.6356             55.4152               26.48        
       975.48878             55.5648               26.388       
       980.36623             55.7127               26.296       
       985.26806              55.86                26.205       
        990.1944             56.0079               26.114       
       995.14537             56.1581               26.024       
       1000.1211             56.3129               25.933       
       1005.1217             56.4625               25.777       
       1010.1473             56.6013               25.622       
        1015.198             56.7321               25.468       
        1020.274             56.8564               25.316       
       1025.3754             56.9753               25.165       
       1030.5023             57.0893               25.015       
       1035.6548              57.199               24.866       
       1040.8331             57.3047               24.718       
       1046.0372             57.4067               24.572       
       1051.2674             57.5052               24.426       
       1056.5238             57.6005               24.282       
       1061.8064             57.6928               24.139       
       1067.1154             57.7823               23.997       
        1072.451              57.869               23.856       
       1077.8132             57.9532               23.717       
       1083.2023             58.0349               23.578       
       1088.6183             58.1143               23.441       
       1094.0614             58.1914               23.305       
       1099.5317             58.2664               23.17        
       1105.0294             58.3393               23.036       
       1110.5545             58.4103               22.903       
       1116.1073             58.4793               22.771       
       1121.6878             58.5466               22.64        
       1127.2963             58.6121               22.511       
       1132.9328             58.6759               22.382       
       1138.5974             58.7382               22.255       
       1144.2904             58.7989               22.128       
       1150.0119             58.8581               22.002       
       1155.7619             58.9154               21.875       
       1161.5407              58.971               21.749       
       1167.3484             59.0249               21.625       
       1173.1852             59.0772               21.501       
       1179.0511             59.1279               21.379       
       1184.9464             59.1772               21.257       
       1190.8711             59.2249               21.136       
       1196.8254             59.2713               21.016       
       1202.8096             59.3162               20.898       
       1208.8236             59.3598               20.78        
       1214.8677             59.4021               20.663       
       1220.9421              59.443               20.547       
