# Dy
# Form Factors from Chantler Tables
# DOI: https://dx.doi.org/10.18434/T4HS32
# automatically retrived 2019-02-28 using URL https://physics.nist.gov/cgi-bin/ffast/ffast.pl

# For f_rel the second term, which is 3/5th of the Cromer-Liberman value, is used as suggested by Chantler.
# Real and imaginary part of the formfactors are: f'(E)=f1(E)+f_rel+f_NT and f''(E)=f2(E)
# see also original publication:  https://doi.org/10.1063/1.555974

# Z = 66
# f_rel = -0.6474 e/atom  (Relativistic correction estimate)
# f_NT = -0.014705 e/atom (Nuclear Thomson correction)


#        E (eV)            f1 (e/atom)          f2 (e/atom)     
         4.116               12.0399                0.0         
         4.179               11.9981                0.0         
         4.1958              11.9535                0.0         
         4.221               11.9946              0.084705      
         4.284               12.0271              0.085785      
         10.69               11.5061              0.26494       
        11.42761             11.3999              0.29523       
        12.21612             11.2755              0.32993       
        13.05903             11.3472               0.3697       
        13.9601              11.1736              0.41529       
        14.92335             10.9656              0.46755       
        15.95306             10.7127              0.52742       
        17.05382             10.3998               0.596        
        18.23053             10.0025              0.67432       
        19.48844              9.4798              0.76357       
        20.83314             8.75445              0.86507       
        22.27063             7.65884              0.98022       
        23.8073              5.72391               1.1105       
        25.45001             0.535432              1.2576       
         25.774              -2.09144              1.2875       
        26.1685              -10.3771              1.3243       
        26.2737              -20.6809              1.3342       
        26.4315              -9.41095              21.825       
         26.826              0.56153               20.871       
        27.20606             4.62242               20.011       
        29.08327             12.7652               16.478       
        31.09002             15.9925               13.594       
        33.23523              17.464               11.256       
        35.52846             18.0436               9.4549       
        37.97993             18.1477               8.132        
        40.60054             18.0083               7.2103       
        43.40198             17.7603               6.6139       
        46.39671             17.4826               6.2771       
        49.59809             17.2211               6.146        
        53.02035             17.0027               6.1788       
        56.67876             16.8431               6.3436       
        60.58959             16.7508               6.6164       
         61.642              16.7367               6.7021       
        62.5855              16.7217               6.7824       
        62.8371              16.7082               6.8044       
        63.2145              16.7212               6.8637       
         64.158              16.7362               6.9503       
        64.77028             16.7444               7.008        
        69.23942              16.849               7.4562       
        74.01695             17.0661               7.9731       
        79.12411             17.4445               8.5332       
        84.58368             17.8946               8.7702       
        90.41995             18.3409               8.9903       
        96.65893             18.7849               9.1862       
         100.0                21.495               9.2747       
         100.5               21.5276               9.287        
        101.0025              21.56                9.2991       
       101.50751             21.5924               9.311        
       102.01505             21.6246               9.3228       
       102.52513             21.6568               9.3343       
       103.03775             21.6888               9.3456       
       103.55294             21.7206               9.3568       
        104.0707             21.7524               9.3677       
       104.59106             21.7839               9.3785       
       105.11401             21.8153               9.389        
       105.63958             21.8466               9.3994       
       106.16778             21.8776               9.4095       
       106.69862             21.9084               9.4195       
       107.23211             21.9391               9.4292       
       107.76827             21.9695               9.4388       
       108.30712             21.9997               9.4481       
       108.84865             22.0296               9.4572       
       109.39289             22.0593               9.4661       
       109.93986             22.0887               9.4748       
       110.48956             22.1178               9.4833       
       111.04201             22.1466               9.4916       
       111.59722             22.1751               9.4997       
        112.1552             22.2033               9.5075       
       112.71598             22.2311               9.5151       
       113.27956             22.2585               9.5225       
       113.84596             22.2856               9.5297       
       114.41519             22.3122               9.5367       
       114.98726             22.3384               9.5434       
        115.5622             22.3642               9.5499       
       116.14001             22.3894               9.5562       
       116.72071             22.4141               9.5623       
       117.30431             22.4384               9.5681       
       117.89083              22.462               9.5737       
       118.48029              22.485               9.5791       
       119.07269             22.5075               9.5842       
       119.66805             22.5292               9.5891       
       120.26639             22.5502               9.5938       
       120.86772             22.5706               9.5983       
       121.47206             22.5901               9.6025       
       122.07942             22.6088               9.6065       
       122.68982             22.6266               9.6102       
       123.30327             22.6435               9.6137       
       123.91979             22.6594               9.617        
       124.53939             22.6743                9.62        
       125.16208              22.688               9.6228       
       125.78789             22.7006               9.6254       
       126.41683             22.7119               9.6277       
       127.04892             22.7219               9.6298       
       127.68416             22.7305               9.6317       
       128.32258             22.7376               9.6333       
       128.96419              22.743               9.6346       
       129.60902             22.7467               9.6358       
       130.25706             22.7486               9.6366       
       130.90835             22.7484               9.6373       
       131.56289             22.7461               9.6377       
        132.2207             22.7414               9.6379       
       132.88181             22.7343               9.6378       
       133.54621             22.7244               9.6375       
       134.21395             22.7116               9.6369       
       134.88502             22.6955               9.6361       
       135.55944              22.676               9.6351       
       136.23724             22.6526               9.6338       
       136.91842             22.6249               9.6323       
       137.60302             22.5927               9.6305       
       138.29103             22.5552               9.6285       
       138.98249             22.5121               9.6262       
        139.6774             22.4625               9.6237       
       140.37579             22.4057               9.621        
       141.07766             22.3409               9.618        
       141.78305             22.2668               9.6148       
       142.49197             22.1822               9.6114       
       143.20443             22.0854               9.6077       
       143.92045             21.9746               9.6038       
       144.64005             21.8471               9.5996       
       145.36325               21.7                9.5952       
       146.09007             21.5292               9.5905       
       146.82052             21.3295               9.5856       
       147.55462             21.0937               9.5805       
       148.29239             20.8121               9.5751       
       149.03386             20.4705               9.5695       
       149.77903             20.0477               9.5637       
       150.52792             19.5095               9.5576       
       151.28056             18.7967               9.5513       
       152.03696              17.793               9.5448       
       152.79715             16.2198               9.538        
       153.56113             13.0688               9.531        
       154.14295             2.08158               9.5255       
       154.25706             2.30352               24.699       
       154.32894             6.37497               24.616       
       155.10058             16.5698               23.763       
       155.87609             20.0324               22.957       
       156.65547             22.1796               22.195       
       157.43875             23.7146               21.476       
       158.22594              24.886               20.796       
       159.01707             25.8134               20.153       
       159.81215             26.5647               19.546       
       160.61121             27.1824               18.972       
       161.41427             27.6954               18.43        
       162.22134             28.1242               17.917       
       163.03245             28.4839               17.432       
       163.84761             28.7863               16.973       
       164.66685             29.0402               16.54        
       165.49018              29.253               16.13        
       166.31763             29.4304               15.742       
       167.14922              29.577               15.375       
       167.98497             29.6966               15.028       
       168.82489             29.7922               14.699       
       169.66902             29.8659               14.388       
       170.51736             29.9196               14.097       
       171.36995             29.9573               13.827       
        172.2268             29.9828               13.578       
       173.08793             29.9991               13.348       
       173.95337             30.0081               13.134       
       174.82314             30.0115               12.935       
       175.69726             30.0105               12.75        
       176.57574             30.0061               12.577       
       177.45862             29.9991               12.416       
       178.34591             29.9902               12.266       
       179.23764             29.9798               12.125       
       180.13383             29.9684               11.992       
        181.0345             29.9563               11.868       
       181.93967             29.9439               11.751       
       182.84937             29.9313               11.641       
       183.76362             29.9187               11.537       
       184.68244             29.9063               11.439       
       185.60585             29.8943               11.347       
       186.53388             29.8825               11.259       
       187.46655             29.8713               11.176       
       188.40388             29.8606               11.097       
        189.3459              29.852               11.021       
       190.29263             29.8424               10.95        
       191.24409             29.8334               10.882       
       192.20031              29.825               10.816       
       193.16131             29.8172               10.754       
       194.12712             29.8101               10.694       
       195.09776             29.8035               10.637       
       196.07325             29.7975               10.583       
       197.05361             29.7921               10.53        
       198.03888             29.7873               10.479       
       199.02907              29.783               10.431       
       200.02422             29.7793               10.384       
       201.02434              29.776               10.339       
       202.02946             29.7732               10.295       
       203.03961             29.7709               10.253       
       204.05481              29.769               10.212       
       205.07508             29.7675               10.172       
       206.10046             29.7664               10.134       
       207.13096             29.7657               10.097       
       208.16661             29.7653               10.061       
       209.20745             29.7652               10.026       
       210.25348             29.7655               9.9921       
       211.30475              29.766               9.959        
       212.36128             29.7667               9.9268       
       213.42308             29.7677               9.8954       
        214.4902             29.7689               9.8648       
       215.56265             29.7702               9.835        
       216.64046             29.7717               9.8059       
       217.72366             29.7734               9.7775       
       218.81228             29.7752               9.7497       
       219.90634             29.7771               9.7226       
       221.00588             29.7791               9.696        
        222.1109             29.7811               9.6701       
       223.22146             29.7832               9.6447       
       224.33757             29.7853               9.6198       
       225.45925             29.7874               9.5955       
       226.58655             29.7895               9.5716       
       227.71948             29.7915               9.5482       
       228.85808             29.7935               9.5253       
       230.00237             29.7955               9.5029       
       231.15238             29.7974               9.4809       
       232.30814             29.7991               9.4593       
       233.46969             29.8008               9.4381       
       234.63703             29.8023               9.4173       
       235.81022             29.8036               9.3969       
       236.98927             29.8048               9.3769       
       238.17422             29.8058               9.3573       
       239.36509             29.8065               9.3381       
       240.56191             29.8071               9.3192       
       241.76472             29.8074               9.3007       
       242.97355             29.8074               9.2825       
       244.18841             29.8071               9.2647       
       245.40936             29.8065               9.2472       
        246.6364             29.8056                9.23        
       247.86959             29.8043               9.2132       
       249.10893             29.8027               9.1967       
       250.35448             29.8006               9.1806       
       251.60625             29.7981               9.1648       
       252.86428             29.7951               9.1492       
        254.1286             29.7916               9.1341       
       255.39925             29.7875               9.1192       
       256.67624             29.7829               9.1046       
       257.95962             29.7777               9.0904       
       259.24942             29.7718               9.0765       
       260.54567             29.7651               9.0628       
        261.8484             29.7577               9.0495       
       263.15764             29.7494               9.0365       
       264.47343             29.7402               9.0238       
       265.79579              29.73                9.0115       
       267.12477             29.7187               8.9994       
        268.4604             29.7062               8.9877       
        269.8027             29.6923               8.9762       
       271.15171             29.6769               8.9651       
       272.50747             29.6598               8.9542       
       273.87001             29.6408               8.9437       
       275.23936             29.6196               8.9335       
       276.61556             29.5958               8.9236       
       277.99863              29.569               8.914        
       279.38863             29.5386               8.9047       
       280.78557             29.5039               8.8958       
        282.1895             29.4638               8.8871       
       283.60044             29.4169               8.8788       
       285.01845             29.3608               8.8707       
       286.44354             29.2919               8.863        
       287.87576             29.2039               8.8556       
       289.31514             29.0837               8.8485       
       290.76171             28.8976               8.8417       
       292.21552             28.4835               8.8352       
       292.62731             28.1482               8.8334       
       293.17269             28.1476               9.9758       
        293.6766             28.5284               9.9751       
       295.14498             28.9155               9.9735       
       296.62071             29.1008               9.9722       
       298.10381             29.2247               9.9711       
       299.59433             29.3182               9.9705       
        301.0923             29.3936               9.9701       
       302.59776             29.4569               9.9701       
       304.11075             29.5114               9.9704       
        305.6313             29.5594               9.971        
       307.15946              29.602               9.9719       
       308.69526             29.6404               9.9732       
       310.23873              29.675               9.9748       
       311.78993             29.7065               9.9767       
       313.34888             29.7352               9.9789       
       314.91562             29.7611               9.9814       
        316.4902             29.7845               9.9843       
       318.07265             29.8052               9.9874       
       319.66301             29.8233               9.9909       
       321.26133             29.8384               9.9947       
       322.86764             29.8499               9.9988       
       324.48197              29.857               10.003       
       326.10438             29.8579               10.008       
       327.73491             29.8488               10.013       
       329.37358              29.82                10.018       
       331.02045             29.7246               10.023       
       331.44831             29.6465               10.025       
       332.15172             29.6565               10.36        
       332.67555             29.7606               10.362       
