# Er
# Form Factors from Chantler Tables
# DOI: https://dx.doi.org/10.18434/T4HS32
# automatically retrived 2019-02-27 using URL https://physics.nist.gov/cgi-bin/ffast/ffast.pl
#
# Z = 68
# f_rel = -1.1649 e/atom  (Relativistic correction estimate)
# f_NT = -0.015166 e/atom (Nuclear Thomson correction)


#        E (eV)            f1 (e/atom)          f2 (e/atom)     
         4.214               11.3349                0.0         
         4.2785              11.2763                0.0         
         4.2957              11.2116                0.0         
         4.3215              11.2735              0.12433       
         4.386               11.3244              0.12488       
         10.69                10.926              0.28242       
        11.42761             10.8355              0.31136       
        12.21612             10.7304               0.3445       
        13.05903              11.014              0.38246       
        13.9601              10.8707              0.42594       
        14.92335             10.7017              0.47574       
        15.95306             10.5009              0.53277       
        17.05382             10.2594              0.59806       
        18.23053             9.96477              0.67274       
        19.48844             9.59762              0.75803       
        20.83314             9.12687              0.85526       
        22.27063              8.498               0.96593       
        23.8073              7.60417               1.0916       
        25.45001             6.19628               1.2341       
        27.20606             3.47413               1.3952       
         28.812              -3.98499               1.55        
        29.08327             -7.97707              1.5769       
         29.253              -13.2047              1.5937       
        29.3706              -24.7216              1.6055       
         29.547              -12.0411              24.533       
         29.988             -0.820267              23.362       
        31.09002             8.00407               20.782       
        33.23523             14.1917               16.869       
        35.52846             16.7708               13.748       
        37.97993             17.8228               11.346       
        40.60054              18.109               9.5843       
        43.40198             18.0104               8.3567       
        46.39671             17.7364               7.5582       
        49.59809             17.4051               7.0975       
        53.02035             17.0826               6.9015       
        56.67876             16.8045               6.9136       
         58.604              16.6851               6.9842       
         59.501              16.6278               7.0288       
        59.7402              16.6014               7.0418       
         60.099              16.6008               7.0928       
        60.58959             16.5898               7.1229       
         60.996              16.5783               7.1492       
        64.77028              16.496               7.4422       
        69.23942             16.4964               7.8749       
        74.01695             16.6185               8.4045       
        79.12411              16.892               9.0191       
        84.58368             17.3191               9.4355       
        90.41995             17.7819               9.7393       
        96.65893             18.2536               10.03        
         100.0               20.7708               10.169       
         100.5               20.8075               10.189       
        101.0025             20.8444               10.209       
       101.50751             20.8813               10.229       
       102.01505             20.9183               10.248       
       102.52513             20.9554               10.268       
       103.03775             20.9925               10.287       
       103.55294             21.0297               10.306       
        104.0707              21.067               10.325       
       104.59106             21.1043               10.343       
       105.11401             21.1417               10.362       
       105.63958             21.1791               10.38        
       106.16778             21.2165               10.398       
       106.69862              21.254               10.416       
       107.23211             21.2915               10.434       
       107.76827             21.3291               10.452       
       108.30712             21.3666               10.469       
       108.84865             21.4042               10.486       
       109.39289             21.4417               10.503       
       109.93986             21.4793               10.52        
       110.48956             21.5168               10.537       
       111.04201             21.5543               10.553       
       111.59722             21.5918               10.569       
        112.1552             21.6293               10.585       
       112.71598             21.6668               10.601       
       113.27956             21.7041               10.617       
       113.84596             21.7415               10.632       
       114.41519             21.7787               10.647       
       114.98726             21.8159               10.662       
        115.5622             21.8531               10.677       
       116.14001             21.8901               10.691       
       116.72071              21.927               10.706       
       117.30431             21.9638               10.72        
       117.89083             22.0005               10.734       
       118.48029              22.037               10.747       
       119.07269             22.0734               10.761       
       119.66805             22.1096               10.774       
       120.26639             22.1457               10.787       
       120.86772             22.1816               10.799       
       121.47206             22.2173               10.812       
       122.07942             22.2528               10.824       
       122.68982              22.288               10.836       
       123.30327              22.323               10.848       
       123.91979             22.3578               10.859       
       124.53939             22.3922               10.871       
       125.16208             22.4264               10.882       
       125.78789             22.4603               10.892       
       126.41683             22.4938               10.903       
       127.04892              22.527               10.913       
       127.68416             22.5598               10.923       
       128.32258             22.5922               10.933       
       128.96419             22.6242               10.942       
       129.60902             22.6557               10.952       
       130.25706             22.6868               10.961       
       130.90835             22.7173               10.969       
       131.56289             22.7473               10.978       
        132.2207             22.7768               10.986       
       132.88181             22.8056               10.994       
       133.54621             22.8338               11.002       
       134.21395             22.8614               11.009       
       134.88502             22.8882               11.016       
       135.55944             22.9142               11.023       
       136.23724             22.9394               11.03        
       136.91842             22.9638               11.036       
       137.60302             22.9872               11.043       
       138.29103             23.0097               11.048       
       138.98249             23.0311               11.054       
        139.6774             23.0514               11.059       
       140.37579             23.0705               11.064       
       141.07766             23.0883               11.069       
       141.78305             23.1047               11.074       
       142.49197             23.1197               11.078       
       143.20443             23.1331               11.082       
       143.92045             23.1448               11.086       
       144.64005             23.1547               11.089       
       145.36325             23.1626               11.092       
       146.09007             23.1683               11.095       
       146.82052             23.1717               11.098       
       147.55462             23.1726                11.1        
       148.29239             23.1707               11.102       
       149.03386             23.1658               11.104       
       149.77903             23.1576               11.105       
       150.52792             23.1458               11.106       
       151.28056             23.1299               11.107       
       152.03696             23.1095               11.108       
       152.79715             23.0842               11.108       
       153.56113             23.0532               11.108       
       154.32894             23.0158               11.108       
       155.10058             22.9713               11.108       
       155.87609             22.9186               11.107       
       156.65547             22.8563               11.106       
       157.43875             22.7829               11.105       
       158.22594             22.6965               11.103       
       159.01707             22.5945               11.101       
       159.81215             22.4735               11.099       
       160.61121             22.3291               11.097       
       161.41427             22.1551               11.094       
       162.22134             21.9426               11.091       
       163.03245             21.6779               11.088       
       163.84761             21.3391               11.085       
       164.66685             20.8872               11.081       
       165.49018             20.2424               11.077       
       166.31763             19.1976               11.073       
       167.14922             16.8073               11.068       
       167.51369             12.7085               11.066       
       167.68632             12.8511               19.211       
       167.98497             16.9178               19.05        
       168.82489              20.202               18.615       
       169.66902              21.697               18.203       
       170.51736              22.632               17.812       
       171.36995             23.2653               17.442       
        172.2268             23.6915               17.091       
       173.08793             23.9468               16.759       
       173.95337              24.03                16.444       
       174.82314             23.8895               16.145       
       175.69726             23.3199               15.861       
       176.57574             20.3429               15.593       
       176.60087             19.9814               15.585       
       176.79912              20.134               20.764       
       177.45862             23.9084               20.369       
       178.34591              25.554               19.863       
       179.23764             26.5431               19.384       
       180.13383             27.2564               18.93        
        181.0345             27.8061               18.499       
       181.93967             28.2463               18.089       
       182.84937              28.606               17.701       
       183.76362             28.9034               17.333       
       184.68244             29.1503               16.984       
       185.60585             29.3557               16.655       
       186.53388             29.5275               16.346       
       187.46655              29.672               16.057       
       188.40388             29.7938               15.784       
        189.3459             29.8966               15.528       
       190.29263             29.9834               15.287       
       191.24409             30.0563               15.059       
       192.20031             30.1174               14.845       
       193.16131              30.168               14.642       
       194.12712             30.2094               14.451       
       195.09776             30.2423               14.271       
       196.07325             30.2681               14.103       
       197.05361             30.2886               13.945       
       198.03888             30.3049               13.799       
       199.02907              30.318               13.661       
       200.02422             30.3287               13.532       
       201.02434             30.3374               13.411       
       202.02946             30.3447               13.297       
       203.03961             30.3508               13.19        
       204.05481             30.3562               13.089       
       205.07508             30.3609               12.993       
       206.10046             30.3653               12.903       
       207.13096             30.3695               12.817       
       208.16661             30.3736               12.736       
       209.20745             30.3778               12.659       
       210.25348              30.382               12.586       
       211.30475             30.3864               12.516       
       212.36128              30.391               12.449       
       213.42308             30.3958               12.385       
        214.4902             30.4009               12.324       
       215.56265             30.4064               12.266       
       216.64046             30.4121               12.21        
       217.72366             30.4182               12.156       
       218.81228             30.4246               12.104       
       219.90634             30.4313               12.055       
       221.00588             30.4384               12.007       
        222.1109             30.4457               11.961       
       223.22146             30.4534               11.916       
       224.33757             30.4613               11.873       
       225.45925             30.4695               11.831       
       226.58655              30.478               11.791       
       227.71948             30.4868               11.752       
       228.85808             30.4957               11.714       
       230.00237             30.5049               11.677       
       231.15238             30.5143               11.642       
       232.30814             30.5239               11.607       
       233.46969             30.5336               11.573       
       234.63703             30.5434               11.54        
       235.81022             30.5534               11.508       
       236.98927             30.5635               11.477       
       238.17422             30.5737               11.446       
       239.36509              30.584               11.416       
       240.56191             30.5943               11.387       
       241.76472             30.6047               11.359       
       242.97355              30.615               11.331       
       244.18841             30.6254               11.303       
       245.40936             30.6358               11.277       
        246.6364             30.6461               11.251       
       247.86959             30.6564               11.225       
       249.10893             30.6666                11.2        
       250.35448             30.6767               11.175       
       251.60625             30.6868               11.151       
       252.86428             30.6967               11.127       
        254.1286             30.7064               11.104       
       255.39925             30.7161               11.081       
       256.67624             30.7255               11.059       
       257.95962             30.7348               11.037       
       259.24942             30.7438               11.015       
       260.54567             30.7526               10.994       
        261.8484             30.7612               10.973       
       263.15764             30.7695               10.953       
       264.47343             30.7776               10.933       
       265.79579             30.7853               10.913       
       267.12477             30.7927               10.893       
        268.4604             30.7997               10.874       
        269.8027             30.8064               10.855       
       271.15171             30.8127               10.837       
       272.50747             30.8186               10.819       
       273.87001              30.824               10.801       
       275.23936              30.829               10.784       
       276.61556             30.8334               10.767       
       277.99863             30.8373               10.75        
       279.38863             30.8406               10.733       
       280.78557             30.8433               10.717       
        282.1895             30.8453               10.701       
       283.60044             30.8466               10.686       
       285.01845             30.8471               10.67        
       286.44354             30.8468               10.655       
       287.87576             30.8456               10.641       
       289.31514             30.8434               10.626       
       290.76171             30.8401               10.612       
       292.21552             30.8356               10.598       
        293.6766             30.8299               10.585       
       295.14498             30.8227               10.572       
       296.62071             30.8138               10.559       
       298.10381             30.8032               10.546       
       299.59433             30.7905               10.534       
        301.0923             30.7754               10.522       
       302.59776             30.7576               10.51        
       304.11075             30.7365               10.499       
        305.6313             30.7116               10.488       
       307.15946             30.6819               10.477       
       308.69526             30.6463               10.467       
       310.23873             30.6031               10.456       
       311.78993             30.5497               10.447       
       313.34888             30.4818               10.437       
       314.91562             30.3915               10.428       
        316.4902             30.2622               10.419       
       318.07265              30.046               10.41        
       319.66301             29.3972               10.402       
       320.33919             29.4022               11.582       
       321.26133              29.901               11.58        
       322.86764             30.2189               11.576       
       324.48197             30.3963               11.573       
       326.10438             30.5222               11.57        
       327.73491              30.621               11.567       
       329.37358             30.7031               11.565       
       331.02045             30.7738               11.563       
       332.67555             30.8362               11.561       
       334.33893             30.8922               11.56        
       336.01062             30.9432               11.558       
       337.69068             30.9899               11.558       
       339.37913             31.0332               11.557       
       341.07602             31.0734               11.557       
