# Eu
# Form Factors from Chantler Tables
# DOI: https://dx.doi.org/10.18434/T4HS32
# automatically retrived 2019-02-27 using URL https://physics.nist.gov/cgi-bin/ffast/ffast.pl
#
# Z = 63
# f_rel = -0.95641 e/atom  (Relativistic correction estimate)
# f_NT = -0.014328 e/atom (Nuclear Thomson correction)


#        E (eV)            f1 (e/atom)          f2 (e/atom)     
         10.69               13.9833              0.25065       
        11.42761             13.8468              0.28095       
        12.21612             13.6829              0.31548       
        13.05903             13.4837              0.35479       
        13.9601              13.2373               0.3995       
        14.92335             12.9256              0.45032       
        15.95306             12.5184              0.50798       
        17.05382             11.9616               0.5733       
        18.23053             11.1444              0.64715       
        19.48844             9.78838              0.73045       
        20.83314             6.82187              0.82418       
         21.56               2.42628              0.87675       
         21.89               -4.57615             0.90104       
         21.978              -13.2262             0.90756       
         22.11               -3.85948              18.081       
        22.27063              1.4657               17.741       
         22.44                4.4272               17.394       
        23.8073              13.2311               14.94        
        25.45001              16.956               12.596       
        27.20606             18.8177               10.552       
        29.08327             19.7321               8.8615       
        31.09002             20.1046               7.5261       
         31.164              20.1107               7.4848       
         31.641              20.1363                7.23        
        31.7682              20.1315               7.1655       
         31.959              20.1522               7.0947       
         32.436              20.1771               6.8729       
        33.23523             20.1866               6.5399       
        35.52846             20.1102                5.81        
        37.97993             19.9568               5.3111       
        40.60054             19.7831               5.0003       
        43.40198             19.6243               4.8414       
        46.39671             19.5039               4.8054       
        49.59809             19.4397               4.8696       
        53.02035             19.4498               5.0163       
        56.67876             19.5454               5.1276       
        60.58959             19.6637               5.1817       
        64.77028             19.7952               5.2494       
        69.23942             19.9539               5.3225       
        74.01695             20.1062               5.3942       
        79.12411             20.2598               5.459        
        84.58368             20.4046               5.5126       
        90.41995              20.526               5.5518       
        96.65893             20.6028               5.5743       
         100.0               23.5129               5.5787       
         100.5               23.5122               5.579        
        101.0025             23.5108               5.5791       
       101.50751             23.5088               5.5791       
       102.01505              23.506               5.579        
       102.52513             23.5024               5.5788       
       103.03775             23.4981               5.5785       
       103.55294             23.4929               5.578        
        104.0707             23.4868               5.5775       
       104.59106             23.4797               5.5769       
       105.11401             23.4717               5.5761       
       105.63958             23.4626               5.5752       
       106.16778             23.4524               5.5742       
       106.69862              23.441               5.5731       
       107.23211             23.4284               5.5719       
       107.76827             23.4145               5.5706       
       108.30712             23.3992               5.5691       
       108.84865             23.3824               5.5676       
       109.39289              23.364               5.5659       
       109.93986             23.3439               5.5641       
       110.48956             23.3221               5.5622       
       111.04201             23.2983               5.5602       
       111.59722             23.2726               5.5581       
        112.1552             23.2446               5.5558       
       112.71598             23.2143               5.5535       
       113.27956             23.1814               5.551        
       113.84596             23.1458               5.5484       
       114.41519             23.1073               5.5457       
       114.98726             23.0656               5.5429       
        115.5622             23.0205                5.54        
       116.14001             22.9716               5.5369       
       116.72071             22.9187               5.5337       
       117.30431             22.8613               5.5305       
       117.89083             22.7989               5.5271       
       118.48029             22.7312               5.5236       
       119.07269             22.6575               5.5199       
       119.66805             22.5772               5.5162       
       120.26639             22.4895               5.5123       
       120.86772             22.3935               5.5084       
       121.47206             22.2882               5.5043       
       122.07942             22.1724               5.5001       
       122.68982             22.0445               5.4958       
       123.30327             21.9029               5.4914       
       123.91979             21.7452               5.4868       
       124.53939             21.5689               5.4822       
       125.16208             21.3706               5.4774       
       125.78789             21.1459               5.4725       
       126.41683             20.8893               5.4675       
       127.04892             20.5935               5.4624       
       127.68416             20.2483               5.4572       
       128.32258             19.8395               5.4519       
       128.96419             19.3466               5.4465       
       129.60902             18.7376               5.4409       
       130.25706             17.9602               5.4353       
       130.90835             16.9196               5.4295       
       131.56289             15.4187               5.4236       
        132.2207             12.9303               5.4176       
       132.88181             6.86825               5.4115       
       133.17243             -7.84966              5.4088       
       133.22758             -7.66782              25.088       
       133.54621             8.89574               24.497       
       134.21395             16.4402               23.32        
       134.88502             20.1017               22.214       
       135.55944             22.5011               21.176       
       136.23724             24.2431               20.201       
       136.91842             25.5737               19.285       
       137.60302             26.6201               18.425       
       138.29103             27.4577               17.617       
       138.98249             28.1354               16.858       
        139.6774             28.6869               16.146       
       140.37579             29.1369               15.476       
       141.07766             29.5036               14.847       
       141.78305             29.8012               14.256       
       142.49197             30.0407                13.7        
       143.20443             30.2312               13.178       
       143.92045             30.3796               12.688       
       144.64005             30.4919               12.227       
       145.36325             30.5726               11.793       
       146.09007             30.6253               11.386       
       146.82052             30.6528               11.003       
       147.55462              30.658               10.65        
       148.29239             30.6466               10.325       
       149.03386             30.6229               10.027       
       149.77903             30.5901               9.7515       
       150.52792             30.5503               9.4978       
       151.28056             30.5054               9.2634       
       152.03696             30.4567               9.0465       
       152.79715             30.4054               8.8455       
       153.56113             30.3522               8.659        
       154.32894              30.298               8.4858       
       155.10058             30.2431               8.3245       
       155.87609             30.1882               8.1743       
       156.65547             30.1335               8.0342       
       157.43875             30.0792               7.9033       
       158.22594             30.0257               7.7808       
       159.01707             29.9731               7.6661       
       159.81215             29.9215               7.5585       
       160.61121             29.8709               7.4575       
       161.41427             29.8216               7.3626       
       162.22134             29.7734               7.2732       
       163.03245             29.7265               7.189        
       163.84761             29.6809               7.1095       
       164.66685             29.6365               7.0345       
       165.49018             29.5934               6.9636       
       166.31763             29.5516               6.8964       
       167.14922             29.5109               6.8328       
       167.98497             29.4715               6.7724       
       168.82489             29.4332               6.7151       
       169.66902              29.396               6.6606       
       170.51736              29.36                6.6087       
       171.36995              29.325               6.5594       
        172.2268             29.2911               6.5123       
       173.08793             29.2582               6.4674       
       173.95337             29.2262               6.4245       
       174.82314             29.1951               6.3835       
       175.69726             29.1649               6.3443       
       176.57574             29.1355               6.3068       
       177.45862             29.1069               6.2709       
       178.34591             29.0792               6.2364       
       179.23764             29.0521               6.2033       
       180.13383             29.0257               6.1716       
        181.0345               29.0                6.1411       
       181.93967             28.9749               6.1118       
       182.84937             28.9504               6.0836       
       183.76362             28.9265               6.0564       
       184.68244             28.9031               6.0303       
       185.60585             28.8802               6.0051       
       186.53388             28.8578               5.9808       
       187.46655             28.8358               5.9574       
       188.40388             28.8142               5.9349       
        189.3459              28.793               5.9131       
       190.29263             28.7722               5.8921       
       191.24409             28.7517               5.8718       
       192.20031             28.7315               5.8522       
       193.16131             28.7116               5.8332       
       194.12712             28.6919               5.8149       
       195.09776             28.6725               5.7972       
       196.07325             28.6533               5.7801       
       197.05361             28.6343               5.7636       
       198.03888             28.6155               5.7477       
       199.02907             28.5968               5.7322       
       200.02422             28.5782               5.7173       
       201.02434             28.5598               5.7029       
       202.02946             28.5414               5.689        
       203.03961             28.5231               5.6756       
       204.05481             28.5048               5.6626       
       205.07508             28.4866               5.6501       
       206.10046             28.4684               5.638        
       207.13096             28.4501               5.6264       
       208.16661             28.4318               5.6152       
       209.20745             28.4135               5.6044       
       210.25348             28.3951               5.594        
       211.30475             28.3766               5.584        
       212.36128              28.358               5.5744       
       213.42308             28.3392               5.5651       
        214.4902             28.3203               5.5563       
       215.56265             28.3011               5.5478       
       216.64046             28.2818               5.5397       
       217.72366             28.2622               5.532        
       218.81228             28.2424               5.5246       
       219.90634             28.2222               5.5176       
       221.00588             28.2018               5.511        
        222.1109              28.181               5.5047       
       223.22146             28.1597               5.4987       
       224.33757             28.1381               5.4931       
       225.45925              28.116               5.4879       
       226.58655             28.0934               5.483        
       227.71948             28.0702               5.4784       
       228.85808             28.0464               5.4741       
       230.00237             28.0219               5.4703       
       231.15238             27.9966               5.4667       
       232.30814             27.9706               5.4635       
       233.46969             27.9436               5.4606       
       234.63703             27.9155               5.458        
       235.81022             27.8864               5.4558       
       236.98927              27.856               5.4539       
       238.17422             27.8241               5.4523       
       239.36509             27.7905               5.4511       
       240.56191             27.7551               5.4502       
       241.76472             27.7175               5.4497       
       242.97355             27.6774               5.4494       
       244.18841             27.6342               5.4495       
       245.40936             27.5873               5.4499       
        246.6364             27.5359               5.4507       
       247.86959             27.4788               5.4518       
       249.10893             27.4142               5.4532       
       250.35448             27.3394               5.4549       
       251.60625             27.2499               5.457        
       252.86428              27.137               5.4594       
        254.1286             26.9814               5.4621       
       255.39925             26.7189               5.4652       
       256.41678             26.0606               5.4679       
       256.67624             25.7561               6.5471       
        256.7832             26.0554               6.5477       
       257.95962             26.7284               6.5549       
       259.24942             26.9422               6.5631       
       260.54567             27.0641               6.5716       
        261.8484             27.1475               6.5805       
       263.15764             27.2093               6.5897       
       264.47343             27.2573               6.5992       
       265.79579             27.2956               6.6091       
       267.12477             27.3266               6.6193       
        268.4604             27.3518               6.6299       
        269.8027             27.3722               6.6408       
       271.15171             27.3884               6.652        
       272.50747             27.4006               6.6636       
       273.87001             27.4091               6.6755       
       275.23936             27.4137               6.6877       
       276.61556             27.4139               6.7003       
       277.99863             27.4088               6.7132       
       279.38863             27.3963               6.7264       
       280.78557             27.3718               6.7399       
        282.1895             27.3221               6.7538       
       283.60044             27.1502               6.768        
       283.66578             27.1247               6.7686       
       284.13421             27.1284               7.1061       
       285.01845             27.3011               7.1162       
       286.44354             27.3998               7.1326       
       287.87576             27.4586               7.1492       
       289.31514             27.5026               7.1662       
       290.76171             27.5387               7.1834       
       292.21552             27.5699               7.2009       
        293.6766             27.5977               7.2187       
       295.14498             27.6229               7.2368       
       296.62071             27.6463               7.2551       
       298.10381             27.6681               7.2737       
       299.59433             27.6886               7.2925       
        301.0923             27.7082               7.3116       
       302.59776             27.7269               7.3309       
       304.11075             27.7448               7.3505       
        305.6313             27.7622               7.3703       
       307.15946             27.7789               7.3903       
       308.69526             27.7952               7.4106       
       310.23873             27.8111               7.4311       
       311.78993             27.8265               7.4518       
       313.34888             27.8416               7.4728       
       314.91562             27.8564               7.4939       
        316.4902             27.8709               7.5152       
       318.07265             27.8851               7.5367       
       319.66301              27.899               7.5584       
       321.26133             27.9127               7.5803       
       322.86764              27.926               7.6024       
       324.48197             27.9391               7.6246       
       326.10438             27.9519               7.647        
       327.73491             27.9643               7.6695       
       329.37358             27.9764               7.6922       
       331.02045             27.9881               7.715        
       332.67555             27.9994               7.7379       
       334.33893             28.0101               7.7609       
       336.01062             28.0203               7.7841       
       337.69068             28.0298               7.8074       
       339.37913             28.0384               7.8307       
       341.07602             28.0461               7.8542       
        342.7814             28.0526               7.8777       
       344.49531             28.0576               7.9014       
       346.21779             28.0607               7.925        
       347.94888             28.0613               7.9488       
