# Fr
# Form Factors from Chantler Tables
# DOI: https://dx.doi.org/10.18434/T4HS32
# automatically retrived 2019-02-27 using URL https://physics.nist.gov/cgi-bin/ffast/ffast.pl
#
# Z = 87
# f_rel = -2.2217 e/atom  (Relativistic correction estimate)
# f_NT = -0.01862 e/atom (Nuclear Thomson correction)


#        E (eV)            f1 (e/atom)          f2 (e/atom)     
        10.40001             -4.29397               0.0         
        10.5592              -10.4119               0.0         
        10.60165             -17.8248               0.0         
        10.66532             -9.97566              14.635       
         10.69               -8.10559              14.564       
        10.8245              -3.08761              14.189       
        11.42761             3.75079               12.671       
        12.21612             6.79698               11.021       
        13.05903             8.07632               9.5691       
        13.9601              8.09233               8.2905       
        14.86167             5.35923               7.2306       
        14.92335             4.76667               7.1649       
        15.08915             1.47371               6.9921       
        15.14981             -3.48118              6.9303       
        15.2408              2.02215               16.744       
        15.46827              6.9443               16.024       
        15.95306             10.5356               14.623       
        17.05382             13.5499               12.017       
        18.23053             14.7041               10.024       
        19.48844             15.1952               8.4856       
        20.83314              15.361               7.2605       
        22.27063             15.3364               6.2608       
        23.8073              15.1812               5.4288       
        25.45001              14.916               4.7256       
        27.20606             14.4964               4.1235       
        27.31051             14.4599               4.0915       
        27.72853             14.2366               3.9675       
         27.84               14.0384               3.9354       
        28.00721              14.198               4.2374       
        28.42523             14.2818               4.1033       
        29.08327             14.2378               3.9051       
        31.09002             13.8726               3.3834       
        33.23523             13.3372               2.9381       
        35.52846             12.6493               2.5561       
        37.97993             11.7859               2.2261       
        40.60054             10.6868               1.9401       
        43.40198             9.24172               1.692        
        46.39671             7.23788               1.4774       
        49.59809             4.16636               1.2924       
        53.02035             -1.94328              1.133        
        53.46183             -3.39592              1.1148       
        54.28013             -8.28821              1.0824       
        54.49834             -12.9003              1.074        
        54.82565             -9.56276              9.4014       
        55.64395             -7.57099              10.254       
        56.67876             -7.78448              11.446       
        58.34708             -10.2763              13.666       
        59.24014             -14.6377              15.021       
        59.47829             -19.664               15.404       
        59.83552             -14.9067              25.839       
        60.58959             -10.9069              27.721       
        60.72859             -10.4605              28.065       
        64.77028            -0.763173              37.01        
        69.23942              11.983               42.431       
        74.01695             24.9875               40.957       
        79.12411             34.4872               34.661       
        84.58368             39.5132               26.691       
        90.41995             40.9454               19.311       
        96.65893             40.1932               13.486       
        103.3284             38.4133               9.295        
        110.4581             36.3113               6.4375       
        118.0797             34.2174               4.5422       
        126.2272              32.171               3.2975       
        130.2983             31.0527               2.8656       
        132.2926             30.1419               2.6873       
        132.8244             29.3747               2.643        
        133.6222             29.9535               3.9126       
        134.9368             30.2267               3.7871       
        135.6165              30.252               3.7252       
        144.2475             29.6373               3.0822       
        154.2005             28.6015               2.5847       
        164.8404             27.3575               2.2433       
        165.6291             27.2376               2.2234       
        168.1643             26.6582               2.1635       
        168.8403             26.1545               2.1485       
        169.8543             26.5525               3.0117       
        172.3895              26.767               2.9216       
        176.2144             26.6924               2.7986       
        188.3732             26.0173               2.4902       
        201.3709             25.0915               2.2659       
        215.2655              23.942               2.1083       
        215.6348              23.907               2.105        
        218.9353             23.5511               2.0767       
        219.8155             23.3824               2.0697       
        221.1357             23.3614               2.2421       
        224.4362             23.1489                2.22        
        230.1188              22.661               2.1874       
        234.0857             22.2701               2.1682       
        237.6687             21.8519               2.1531       
        238.6241             21.6828               2.1494       
        240.0573             21.5829               2.2791       
        241.5586             21.4436               2.2876       
        243.6403             21.2188               2.3022       
        245.256              21.0204               2.3159       
        245.997               20.91                2.3229       
        246.2419             20.8613               2.3253       
        247.7208             20.7371               2.4424       
        251.4182             20.3427               2.5174       
        262.9708             18.8987               2.912        
        281.1158             16.3963               4.2112       
        300.5128             13.8493               6.6175       
        321.2482             11.8075               10.22        
        343.4143             10.8331               14.767       
        367.1099              11.271               19.728       
        392.4405             13.1412               24.493       
        419.5189             16.1759               28.553       
        448.4657             19.9611               31.609       
        479.4098             24.0317               33.572       
         500.0               27.9322               34.274       
         502.5               28.2216               34.332       
        505.0125             28.5084               34.385       
       507.53756             28.7939               34.433       
       510.07525             29.0749               34.475       
       512.62563             29.3526               34.513       
       515.18875             29.6269               34.546       
        517.7647             29.8974               34.574       
       520.35352             30.1639               34.598       
       522.95529             30.4261               34.617       
       525.57007             30.6836               34.631       
       528.19792             30.9361               34.641       
       530.83891             31.1833               34.647       
        533.4931             31.4245               34.648       
       536.16057             31.6594               34.645       
       538.84137             31.8872               34.638       
       541.53558             32.1073               34.627       
       544.24325             32.3188               34.612       
       546.96447             32.5205               34.593       
       549.69929             32.7112               34.57        
       552.44779              32.889               34.543       
       555.21003             33.0516               34.513       
       557.98608             33.1958               34.479       
       560.77601             33.3167               34.442       
       563.57989             33.4071               34.402       
       566.39779             33.4545               34.358       
       569.22978              33.435               34.311       
       572.07593             33.2919               34.26        
        574.9363             32.8112               34.207       
       576.62439              31.581               34.174       
       577.37565             31.6271               36.636       
       577.81099             32.2603               36.63        
       580.70004             33.6387               36.594       
       583.60354             34.2731               36.555       
       586.52156             34.7286               36.513       
       589.45417             35.0911               36.468       
       592.40144              35.385               36.422       
       595.36345             35.6106               36.372       
       598.34026             35.7396               36.321       
       601.33196              35.632               36.267       
       602.90602             35.0309               36.238       
       603.69393             35.1112               37.725       
       604.33862             35.6398               37.716       
       607.36032             36.5982               37.673       
       610.39712             37.1673               37.628       
        613.4491             37.6346               37.582       
       616.51635             38.0516               37.533       
       619.59893             38.4375               37.483       
       622.69693             38.8015               37.432       
       625.81041             39.1491               37.379       
       628.93946             39.4836               37.324       
       632.08416             39.8075               37.268       
       635.24458             40.1225               37.211       
        638.4208             40.4297               37.152       
       641.61291             40.7302               37.091       
       644.82097             41.0244               37.029       
       648.04508             41.3129               36.965       
        651.2853              41.596               36.899       
       654.54173             41.8742               36.831       
       657.81444             42.1478               36.762       
       661.10351             42.4181               36.692       
       664.40903             42.6831               36.62        
       667.73107             42.9442               36.546       
       671.06973             43.2015               36.471       
       674.42508              43.455               36.394       
        677.7972             43.7049               36.316       
       681.18619             43.9511               36.236       
       684.59212             44.1937               36.155       
       688.01508             44.4327               36.072       
       691.45515             44.6683               35.988       
       694.91243             44.9003               35.902       
       698.38699             45.1288               35.815       
       701.87893             45.3539               35.727       
       705.38832             45.5756               35.638       
       708.91526             45.7937               35.547       
       712.45984             46.0084               35.456       
       716.02214             46.2196               35.363       
       719.60225             46.4513               35.269       
       723.20026             46.6555               35.173       
       726.81626             46.8559               35.077       
       730.45034             47.0524               34.98        
        734.1026              47.245               34.882       
       737.77311             47.4335               34.782       
       741.46197             47.6486               34.682       
       745.16928             47.8287               34.582       
       748.89513             48.0042               34.48        
       752.63961             48.1747               34.378       
        756.4028             48.3399               34.275       
       760.18482             48.4994               34.171       
       763.98574             48.6526               34.066       
       767.80567             48.7988               33.961       
        771.6447             48.9371               33.856       
       775.50292             49.0662               33.75        
       779.38044             49.1845               33.643       
       783.27734             49.2895               33.536       
       787.19373             49.3776               33.428       
       791.12969             49.4432               33.32        
       795.08534             49.4765               33.212       
       799.06077             49.4582               33.103       
       803.05607              49.342               32.994       
       807.07135             48.9529               32.885       
        808.9146             48.3781               32.835       
       811.10671             48.4888               34.857       
       815.16224             49.6878               34.748       
       819.23806             50.2509               34.64        
       823.33425             50.6701               34.531       
       827.45092             51.0229               34.422       
       831.58817             51.3368               34.313       
       835.74611             51.6249               34.204       
       839.92484             51.8945               34.095       
       844.12447             52.1499               33.985       
       848.34509              52.394               33.876       
       852.58682             52.6289               33.767       
       856.84975             52.8561               33.658       
        861.134              53.0767               33.548       
       865.43967             53.2915               33.439       
       869.76687             53.5012               33.33        
        874.1157             53.7063               33.221       
       878.48628             53.9072               33.113       
       882.87871             54.1045               33.004       
        887.2931             54.2983               32.896       
       891.72957              54.489               32.787       
       896.18822             54.6767               32.679       
       900.66916             54.8618               32.572       
        905.1725             55.0442               32.464       
       909.69837             55.2242               32.357       
       914.24686             55.4019               32.249       
       918.81809             55.5774               32.142       
       923.41218             55.7507               32.036       
       928.02924             55.9219               31.929       
       932.66939              56.091               31.823       
       937.33274             56.2579               31.718       
        942.0194             56.4225               31.612       
        946.7295             56.5846               31.507       
       951.46315             56.7437               31.403       
       956.22046             56.8991               31.298       
       961.00156             57.0492               31.195       
       965.80657             57.1911               31.091       
        970.6356             57.3175               30.988       
       975.48878             57.4036               30.885       
       978.59862             57.3653               30.814       
       980.36623             57.2538               31.188       
       981.40142             57.4694               31.165       
       985.26806             57.7884               31.078       
        990.1944             58.0602               30.968       
       995.14537             58.2997               30.859       
       1000.1211             58.5305               30.749       
       1005.1217             58.7261               30.568       
       1010.1473             58.9113               30.388       
        1015.198             59.0881               30.21        
        1020.274             59.2577               30.033       
       1025.3754             59.4197               29.85        
       1030.5023             59.5748               29.667       
       1035.6548             59.7237               29.485       
       1040.8331             59.8667               29.305       
       1046.0372             60.0043               29.127       
       1051.2674             60.1367               28.95        
       1056.5238             60.2641               28.774       
       1061.8064             60.3869                28.6        
       1067.1154             60.5051               28.427       
        1072.451              60.619               28.255       
       1077.8132             60.7285               28.085       
       1083.2023             60.8337               27.916       
       1088.6183             60.9345               27.748       
       1094.0614             61.0309               27.582       
       1099.5317             61.1226               27.417       
       1105.0294             61.2096               27.253       
       1110.5545             61.2913               27.09        
       1116.1073             61.3673               26.929       
       1121.6878             61.4365               26.768       
       1127.2963             61.4974               26.608       
       1132.9328              61.547               26.449       
       1138.5974             61.5793               26.292       
       1144.2904             61.5791               26.135       
       1150.0119             61.4763               25.98        
       1151.6164             61.3637               25.937       
       1154.3836             61.4176               26.42        
       1155.7619             61.5604               26.383       
       1161.5407             61.8434               26.23        
       1167.3484             62.0159               26.077       
       1173.1852             62.1549               25.926       
       1179.0511             62.2765               25.776       
       1184.9464             62.3872               25.627       
       1190.8711              62.49                25.48        
       1196.8254             62.5866               25.333       
       1202.8096             62.6782               25.188       
       1208.8236             62.7655               25.044       
       1214.8677              62.849               24.901       
       1220.9421             62.9295               24.759       
       1227.0468             63.0072               24.619       
        1233.182             63.0823               24.48        
       1239.3479              63.155               24.342       
       1245.5447             63.2254               24.205       
       1251.7724             63.2938               24.069       
