# Ga
# Form Factors from Chantler Tables
# DOI: https://dx.doi.org/10.18434/T4HS32
# automatically retrived 2019-02-28 using URL https://physics.nist.gov/cgi-bin/ffast/ffast.pl

# For f_rel the second term, which is 3/5th of the Cromer-Liberman value, is used as suggested by Chantler.
# Real and imaginary part of the formfactors are: f'(E)=f1(E)+f_rel+f_NT and f''(E)=f2(E)
# see also original publication:  https://doi.org/10.1063/1.555974

# Z = 31
# f_rel = -0.1032 e/atom  (Relativistic correction estimate)
# f_NT = -0.0075615 e/atom (Nuclear Thomson correction)


#        E (eV)            f1 (e/atom)          f2 (e/atom)     
         10.69               3.15198                0.0         
        11.42761             3.09183                0.0         
        12.21612             3.01884                0.0         
        13.05903              2.9286                0.0         
        13.9601              2.81368                0.0         
        14.92335              2.6595                0.0         
        15.95306              2.4281                0.0         
        17.05382             1.90191                0.0         
         17.313               1.4508                0.0         
        17.3826              0.945019               0.0         
         17.487              1.43339              0.97516       
         17.748              1.83886              0.97958       
        18.23053             2.06446              0.98763       
        19.48844             2.22367               1.0092       
        20.83314             2.21897               1.0578       
        22.27063             2.15214               1.1418       
        23.8073               2.0508               1.2615       
        25.45001             1.92725               1.4188       
        27.20606             1.78929               1.6168       
        29.08327             1.64356               1.8592       
        31.09002             1.49683                2.15        
        33.23523             1.35666               2.4925       
        35.52846             1.23162               2.8896       
        37.97993             1.13137               3.3429       
        40.60054             1.06643               3.8522       
        43.40198              1.0479               4.4153       
        46.39671             1.08696               5.0277       
        49.59809             1.19432               5.6822       
        53.02035             1.38877               6.3693       
        56.67876             1.66014               7.0772       
        60.58959             2.02335               7.7923       
        64.77028             2.48203               8.4996       
        69.23942             3.03821               9.1832       
        74.01695             3.69108               9.8181       
        79.12411             4.42213               10.377       
        84.58368              5.2061               10.846       
        90.41995             6.01082               11.218       
        96.65893             6.77799               11.487       
        100.842              7.14467               11.604       
        102.3855             7.11392               11.635       
        102.7971             6.91461               11.643       
        103.3284             7.18608               12.131       
        103.4145             7.22281               12.133       
        104.664              7.53327               12.159       
        104.958              7.58273               12.165       
        106.266              7.72946               12.188       
        106.6932             7.68165               12.195       
        107.334              7.90187               12.437       
        108.936              8.24646               12.461       
        110.4581             8.50418               12.48        
        118.0797             9.56869               12.517       
        126.2272             10.5176               12.48        
        134.9368             11.3901               12.38        
        144.2475             12.1765               12.225       
        154.2005             12.7848               12.025       
        154.938              12.8065               12.009       
        157.3095             12.7561               11.957       
        157.9419             12.5398               11.943       
        158.8905             12.8669               12.434       
        161.262               13.258               12.388       
        164.8404             13.6262               12.317       
        176.2144             14.5147               12.084       
        188.3732             15.2959               11.827       
        201.3709             16.0188               11.548       
        215.2655             16.6967               11.251       
        230.1188              17.336               10.939       
        245.997              17.9414               10.614       
        262.9708             18.5163               10.279       
        281.1158             19.0643               9.9349       
        300.5128             19.5895               9.5828       
        321.2482             20.0952               9.2241       
        343.4143             20.5727               8.7314       
        367.1099             20.9634               8.2053       
        392.4405             21.2796               7.6944       
        419.5189             21.5316               7.2003       
        448.4657             21.7256               6.7227       
        479.4098             21.8639               6.2622       
        512.4891             21.9465               5.8209       
        547.8508             21.9737               5.4005       
        585.6525             21.9438               5.0023       
        626.0625              21.853               4.627        
        669.2609             21.6937               4.2747       
        715.4399             21.4528               3.9455       
        764.8052             21.1076               3.6389       
        817.5768             20.6181               3.3545       
        873.9896             19.9078               3.0916       
         900.0               20.4665               2.9826       
         904.5               20.4043               2.9644       
        909.0225             20.3401               2.9464       
       913.56761             20.2736               2.9284       
       918.13545              20.205               2.9106       
       922.72613             20.1339               2.8929       
       927.33976             20.0604               2.8753       
       931.97646             19.9842               2.8578       
       936.63634             19.9053               2.8404       
       941.31952             19.8233               2.8232       
       946.02612             19.7383               2.806        
       950.75625             19.6499               2.789        
       955.51003              19.558               2.772        
       960.28758             19.4622               2.7552       
       965.08902             19.3625               2.7384       
       969.91446             19.2584               2.7218       
       974.76404             19.1497               2.7053       
       979.63786              19.036               2.6889       
       984.53605             18.9169               2.6725       
       989.45873              18.792               2.6563       
       994.40602             18.6608               2.6402       
       999.37805             18.5227               2.6242       
       1004.3749             18.3744               2.6042       
       1009.3968             18.2171               2.5837       
       1014.4438             18.0503               2.5634       
        1019.516              17.873               2.5434       
       1024.6136             17.6841               2.5234       
       1029.7367             17.4821               2.5037       
       1034.8853             17.2655               2.4842       
       1040.0598             17.0322               2.4648       
       1045.2601              16.78                2.4456       
       1050.4864             16.5058               2.4266       
       1055.7388             16.2061               2.4077       
       1061.0175              15.876               2.389        
       1066.3226             15.5096               2.3705       
       1071.6542             15.0984               2.3521       
       1077.0125             14.6313               2.3339       
       1082.3975             14.0917               2.3159       
       1087.8095             13.4544               2.2981       
       1093.2486              12.678               2.2803       
       1098.7148             11.6858               2.2628       
       1104.2084             10.3097               2.2454       
       1109.7294             8.02547               2.2282       
       1115.2781             -4.2778               2.2111       
        1115.315             -5.41991              2.211        
        1115.485             -5.58976              12.157       
       1120.8545             7.38309               12.061       
       1126.4587             9.26436               11.962       
        1132.091             9.98691               11.864       
       1137.7515              9.7512               11.766       
        1142.213             4.23877               11.69        
       1142.3871             4.18116               16.591       
       1143.4402             8.34121               16.566       
       1149.1574              11.824               16.43        
       1154.9032             13.3476               16.296       
       1160.6777             14.4324               16.163       
       1166.4811             15.2974               16.031       
       1172.3135             16.0239                15.9        
       1178.1751             16.6524               15.77        
        1184.066             17.2067               15.641       
       1189.9863             17.7023               15.513       
       1195.9362             18.1496               15.386       
       1201.9159             18.5562               15.261       
       1207.9255             18.9278               15.136       
       1213.9651             19.2684               15.012       
        1220.035             19.5812               14.89        
       1226.1351             19.8687               14.768       
       1232.2658             20.1326               14.648       
       1238.4271             20.3739               14.528       
       1244.6193             20.5931               14.409       
       1250.8424              20.79                14.292       
       1257.0966             20.9633               14.175       
       1263.3821             21.1106               14.06        
        1269.699             21.2267               13.945       
       1276.0475             21.3018               13.831       
       1282.4277             21.3144               13.718       
       1288.8399             21.2054               13.607       
        1295.284             20.6512               13.496       
       1296.4841             20.2896               13.475       
        1298.916             20.3323               15.253       
       1301.7605             21.1138               15.205       
       1308.2693             21.8519               15.095       
       1314.8106             22.3083               14.986       
       1321.3847             22.6677               14.878       
       1327.9916             22.9755               14.771       
       1334.6316             23.2501               14.665       
       1341.3047             23.5011               14.559       
       1348.0112             23.7338               14.455       
       1354.7513             23.9522               14.351       
        1361.525             24.1587               14.248       
       1368.3327             24.3549               14.144       
       1375.1743             24.5413               14.041       
       1382.0502             24.7192               13.938       
       1388.9605             24.8895               13.836       
       1395.9053             25.0529               13.735       
       1402.8848             25.2099               13.635       
       1409.8992             25.3612               13.535       
       1416.9487             25.5071               13.436       
       1424.0335             25.6479               13.337       
       1431.1536             25.7841               13.24        
       1438.3094             25.9158               13.143       
       1445.5009             26.0433               13.046       
       1452.7284             26.1669               12.951       
       1459.9921             26.2868               12.856       
        1467.292             26.4031               12.762       
       1474.6285             26.5161               12.669       
       1482.0016              26.626               12.576       
       1489.4117             26.7327               12.484       
       1496.8587             26.8366               12.393       
        1504.343             26.9376               12.302       
       1511.8647             27.0359               12.212       
        1519.424             27.1317               12.123       
       1527.0212             27.2249               12.034       
       1534.6563             27.3158               11.946       
       1542.3295             27.4043               11.858       
       1550.0412             27.4906               11.772       
       1557.7914             27.5748               11.685       
       1565.5804             27.6569                11.6        
       1573.4083              27.737               11.515       
       1581.2753             27.8151               11.431       
       1589.1817             27.8914               11.347       
       1597.1276             27.9659               11.264       
       1605.1132             28.0387               11.182       
       1613.1388             28.1097                11.1        
       1621.2045             28.1791               11.019       
       1629.3105              28.247               10.938       
       1637.4571             28.3133               10.858       
       1645.6443             28.3781               10.779       
       1653.8726             28.4415                10.7        
       1662.1419             28.5036               10.622       
       1670.4526             28.5643               10.545       
       1678.8049             28.6238               10.468       
       1687.1989             28.6822               10.391       
       1695.6349             28.7392               10.315       
       1704.1131             28.7948               10.238       
       1712.6337             28.8491               10.163       
       1721.1968             28.9022               10.088       
       1729.8028              28.954               10.013       
       1738.4518             29.0047               9.9394       
       1747.1441             29.0542               9.8661       
       1755.8798             29.1026               9.7933       
       1764.6592             29.1499               9.721        
       1773.4825             29.1962               9.6493       
       1782.3499             29.2415               9.5782       
       1791.2617             29.2858               9.5075       
        1800.218             29.3291               9.4374       
       1809.2191             29.3715               9.3679       
       1818.2652              29.413               9.2988       
       1827.3565             29.4536               9.2303       
       1836.4933             29.4933               9.1622       
       1845.6757             29.5322               9.0947       
       1854.9041             29.5702               9.0277       
       1864.1786             29.6075               8.9612       
       1873.4995             29.6439               8.8952       
        1882.867             29.6796               8.8297       
       1892.2814             29.7146               8.7646       
       1901.7428             29.7488               8.7001       
       1911.2515             29.7823               8.636        
       1920.8077             29.8151               8.5724       
       1930.4118             29.8473               8.5093       
       1940.0638             29.8787               8.4462       
       1949.7642             29.9096               8.3834       
        1959.513             29.9397               8.321        
       1969.3105             29.9692               8.2591       
       1979.1571             29.9981               8.1977       
       1989.0529             30.0264               8.1368       
       1998.9981             30.0541               8.0763       
       2008.9931             30.0812               8.0162       
       2019.0381             30.1077               7.9563       
       2029.1333             30.1337               7.8969       
        2039.279             30.1591               7.8379       
       2049.4754             30.1839               7.7793       
       2059.7227             30.2083               7.7212       
       2070.0213             30.2321               7.6636       
       2080.3714             30.2554               7.6064       
       2090.7733             30.2782               7.5496       
       2101.2272             30.3006               7.4932       
       2111.7333             30.3225               7.4373       
        2122.292             30.3439               7.3818       
       2132.9034             30.3649               7.3268       
        2143.568             30.3855               7.2721       
       2154.2858             30.4057               7.2179       
       2165.0572             30.4255               7.1641       
       2175.8825             30.4448               7.1107       
       2186.7619             30.4639               7.0577       
       2197.6957             30.4825               7.0051       
       2208.6842             30.5008               6.9529       
       2219.7276             30.5188               6.9011       
       2230.8263             30.6455               6.8497       
       2241.9804             30.6628               6.7967       
       2253.1903             30.6796               6.7441       
       2264.4562             30.6959               6.692        
       2275.7785             30.7117               6.6403       
       2287.1574             30.7822               6.5887       
       2298.5932             30.7971               6.5368       
       2310.0862             30.8114               6.4853       
       2321.6366             30.8253               6.4343       
       2333.2448             30.8387               6.3836       
        2344.911             30.8516               6.3333       
       2356.6356             30.8641               6.2835       
       2368.4187             30.8762               6.234        
       2380.2608             30.8879               6.1849       
       2392.1621             30.8991               6.1363       
        2404.123              30.91                6.088        
       2416.1436             30.9206               6.0401       
       2428.2243             30.9307               5.9926       
       2440.3654             30.9406               5.9455       
       2452.5672             30.9501               5.8987       
       2464.8301             30.9593               5.8523       
       2477.1542             30.9682               5.8064       
        2489.54              30.9768               5.7607       
