# Gd
# Form Factors from Chantler Tables
# DOI: https://dx.doi.org/10.18434/T4HS32
# automatically retrived 2019-02-28 using URL https://physics.nist.gov/cgi-bin/ffast/ffast.pl

# For f_rel the second term, which is 3/5th of the Cromer-Liberman value, is used as suggested by Chantler.
# Real and imaginary part of the formfactors are: f'(E)=f1(E)+f_rel+f_NT and f''(E)=f2(E)
# see also original publication:  https://doi.org/10.1063/1.555974

# Z = 64
# f_rel = -0.6 e/atom  (Relativistic correction estimate)
# f_NT = -0.014289 e/atom (Nuclear Thomson correction)


#        E (eV)            f1 (e/atom)          f2 (e/atom)     
        8.35371              13.2097                0.0         
        8.481573             13.1819                0.0         
        8.51567              13.1665                0.0         
        8.566815             13.1686              0.019667      
        8.694678             13.1559              0.019324      
        9.093814             13.0748              0.018323      
        9.233005             13.0083              0.017996      
        9.270123             12.9446              0.01791       
        9.325799             12.9986              0.13389       
        9.46499              13.0338              0.13155       
         10.69               12.9235              0.11642       
        11.42761             12.7999               0.1149       
        12.21612             12.6419              0.11823       
        13.05903             12.4423              0.12603       
        13.9601              12.1876              0.13838       
        14.92335             11.8541              0.15568       
        15.95306             11.3991              0.17868       
        17.05382             10.7332              0.20836       
        18.23053             9.62346              0.24598       
        19.48844             7.04472               0.2931       
         19.894              4.95758              0.30984       
        20.1985              0.508358             0.32291       
        20.2797              -4.87034             0.32647       
        20.4015              0.785012              10.947       
         20.706              5.76199               10.71        
        20.83314             6.77123               10.614       
        22.27063             11.7709               9.6389       
        23.8073              14.0334               8.6774       
        25.45001             15.3779               7.6765       
        27.20606             16.1513               6.7379       
        29.08327             16.4765               5.9222       
        31.09002             16.6427               5.2582       
        33.23523              16.645               4.7528       
         35.378              16.5486               4.4181       
        35.52846             16.5385                4.4         
        35.9195              16.5057               4.3559       
        36.0639              16.4811               4.3406       
        36.2805              16.4852               4.3514       
         36.822              16.4682               4.3032       
        37.97993             16.4096               4.2232       
        40.60054             16.2666               4.1376       
        43.40198             16.1333               4.1554       
        46.39671             16.0235               4.2536       
        49.59809             15.9462               4.419        
        53.02035             15.9079               4.6376       
        56.67876             15.9114               4.8971       
        60.58959             15.9574               5.1869       
        64.77028             16.0625               5.4977       
        69.23942             16.1889               5.8218       
        74.01695             16.3506               6.1529       
        79.12411             16.5431               6.4858       
        84.58368             16.7603               6.8167       
        90.41995             16.9955               7.1432       
        96.65893             17.2392               7.4631       
         100.0               20.0918               7.6231       
         100.5               20.1097               7.6464       
        101.0025             20.1276               7.6697       
       101.50751             20.1454               7.6929       
       102.01505             20.1631               7.7161       
       102.52513             20.1807               7.7392       
       103.03775             20.1981               7.7623       
       103.55294             20.2154               7.7853       
        104.0707             20.2325               7.8083       
       104.59106             20.2494               7.8312       
       105.11401             20.2662               7.8541       
       105.63958             20.2827               7.877        
       106.16778             20.2991               7.8998       
       106.69862             20.3151               7.9225       
       107.23211              20.331               7.9452       
       107.76827             20.3465               7.9679       
       108.30712             20.3624               7.9905       
       108.84865             20.3773               8.0131       
       109.39289             20.3919               8.0356       
       109.93986             20.4062               8.0581       
       110.48956              20.42                8.0805       
       111.04201             20.4334               8.1029       
       111.59722             20.4464               8.1253       
        112.1552             20.4589               8.1476       
       112.71598             20.4708               8.1699       
       113.27956             20.4822               8.1921       
       113.84596              20.493               8.2143       
       114.41519             20.5032               8.2364       
       114.98726             20.5126               8.2585       
        115.5622             20.5214               8.2806       
       116.14001             20.5293               8.3026       
       116.72071             20.5363               8.3246       
       117.30431             20.5425               8.3465       
       117.89083             20.5476               8.3684       
       118.48029             20.5516               8.3902       
       119.07269             20.5545               8.412        
       119.66805             20.5561               8.4338       
       120.26639             20.5563               8.4556       
       120.86772             20.5551               8.4773       
       121.47206             20.5521               8.4989       
       122.07942             20.5474               8.5205       
       122.68982             20.5408               8.5421       
       123.30327              20.532               8.5637       
       123.91979             20.5209               8.5852       
       124.53939             20.5071               8.6067       
       125.16208             20.4905               8.6282       
       125.78789             20.4707               8.6496       
       126.41683             20.4473               8.671        
       127.04892              20.42                8.6923       
       127.68416             20.3882               8.7137       
       128.32258             20.3513               8.7349       
       128.96419             20.3087               8.7562       
       129.60902             20.2596               8.7775       
       130.25706             20.2028               8.7987       
       130.90835             20.1373               8.8199       
       131.56289             20.0615               8.841        
        132.2207             19.9734               8.8621       
       132.88181             19.8708               8.8832       
       133.54621             19.7505               8.9043       
       134.21395             19.6081               8.9254       
       134.88502             19.4381               8.9464       
       135.55944             19.2323               8.9674       
       136.23724             18.9787               8.9884       
       136.91842             18.6585               9.0094       
       137.60302             18.2403               9.0304       
       138.29103             17.6653               9.0513       
       138.98249             16.8045               9.0722       
        139.6774             15.2719               9.0931       
       140.37579             9.93257               9.114        
       140.46403             6.19564               9.1166       
       140.53596             6.28437               18.785       
       141.07766             15.2536               18.453       
       141.78305             18.0396               18.041       
       142.49197             19.6242               17.649       
       143.20443              20.734               17.277       
       143.92045             21.5809               16.922       
       144.64005              22.258               16.585       
       145.36325             22.8151               16.265       
       146.09007             23.2827               15.96        
       146.82052             23.6805               15.67        
       147.55462             24.0225               15.395       
       148.29239             24.3187               15.134       
       149.03386             24.5768               14.886       
       149.77903             24.8027               14.65        
       150.52792              25.001               14.426       
       151.28056             25.1754               14.214       
       152.03696              25.329               14.012       
       152.79715             25.4641               13.821       
       153.56113             25.5827               13.639       
       154.32894             25.6862               13.467       
       155.10058             25.7757               13.305       
       155.87609             25.8529               13.155       
       156.65547             25.9207               13.018       
       157.43875             25.9812               12.892       
       158.22594             26.0358               12.776       
       159.01707             26.0858               12.669       
       159.81215             26.1321               12.571       
       160.61121             26.1755               12.477       
       161.41427             26.2165               12.388       
       162.22134             26.2555               12.306       
       163.03245             26.2929               12.23        
       163.84761             26.3291               12.16        
       164.66685             26.3644               12.096       
       165.49018             26.3991               12.036       
       166.31763             26.4335               11.981       
       167.14922             26.4677               11.931       
       167.98497              26.502               11.884       
       168.82489             26.5364               11.841       
       169.66902             26.5712               11.802       
       170.51736             26.6064               11.765       
       171.36995             26.6421               11.732       
        172.2268             26.6785               11.702       
       173.08793             26.7156               11.674       
       173.95337             26.7535               11.649       
       174.82314             26.7928               11.601       
       175.69726              26.832               11.542       
       176.57574             26.8704               11.484       
       177.45862              26.908               11.428       
       178.34591             26.9451               11.374       
       179.23764             26.9814               11.321       
       180.13383             27.0172               11.27        
        181.0345             27.0524               11.22        
       181.93967              27.087               11.171       
       182.84937             27.1211               11.124       
       183.76362             27.1546               11.077       
       184.68244             27.1877               11.032       
       185.60585             27.2202               10.988       
       186.53388             27.2522               10.944       
       187.46655             27.2838               10.902       
       188.40388             27.3149               10.86        
        189.3459             27.3455               10.82        
       190.29263             27.3757               10.78        
       191.24409             27.4054               10.74        
       192.20031             27.4346               10.702       
       193.16131             27.4634               10.664       
       194.12712             27.4917               10.626       
       195.09776             27.5195               10.59        
       196.07325             27.5469               10.554       
       197.05361             27.5739               10.518       
       198.03888             27.6004               10.483       
       199.02907             27.6264               10.449       
       200.02422              27.652               10.414       
       201.02434             27.6771               10.381       
       202.02946             27.7018               10.348       
       203.03961             27.7259               10.315       
       204.05481             27.7497               10.283       
       205.07508             27.7729               10.251       
       206.10046             27.7956               10.22        
       207.13096             27.8179               10.189       
       208.16661             27.8397               10.158       
       209.20745              27.861               10.128       
       210.25348             27.8817               10.098       
       211.30475              27.902               10.069       
       212.36128             27.9218               10.04        
       213.42308              27.941               10.011       
        214.4902             27.9597               9.9825       
       215.56265             27.9779               9.9544       
       216.64046             27.9956               9.9266       
       217.72366             28.0127               9.8992       
       218.81228             28.0293               9.8721       
       219.90634             28.0452               9.8453       
       221.00588             28.0606               9.8188       
        222.1109             28.0755               9.7927       
       223.22146             28.0897               9.7668       
       224.33757             28.1033               9.7413       
       225.45925             28.1163               9.7161       
       226.58655             28.1286               9.6911       
       227.71948             28.1403               9.6665       
       228.85808             28.1513               9.6422       
       230.00237             28.1617               9.6183       
       231.15238             28.1713               9.5946       
       232.30814             28.1802               9.5712       
       233.46969             28.1883               9.5481       
       234.63703             28.1956               9.5253       
       235.81022             28.2021               9.5029       
       236.98927             28.2078               9.4807       
       238.17422             28.2126               9.4589       
       239.36509             28.2164               9.4373       
       240.56191             28.2193               9.4161       
       241.76472             28.2211               9.3951       
       242.97355             28.2218               9.3745       
       244.18841             28.2214               9.3542       
       245.40936             28.2197               9.3342       
        246.6364             28.2166               9.3145       
       247.86959             28.2122               9.2951       
       249.10893             28.2061               9.276        
       250.35448             28.1983               9.2573       
       251.60625             28.1886               9.2388       
       252.86428             28.1768               9.2207       
        254.1286             28.1626               9.2029       
       255.39925             28.1457               9.1854       
       256.67624             28.1256               9.1682       
       257.95962             28.1019               9.1513       
       259.24942             28.0738               9.1348       
       260.54567             28.0404               9.1186       
        261.8484             28.0004               9.1027       
       263.15764             27.9517               9.0871       
       264.47343             27.8913               9.0718       
       265.79579              27.814               9.0569       
       267.12477             27.7097               9.0423       
        268.4604              27.555               9.028        
        269.8027             27.2664               9.014        
       270.68519             26.6714               9.0051       
       271.11483             26.6713               10.149       
       271.15171             26.7292               10.149       
       272.50747             27.4074               10.139       
       273.87001             27.6326               10.13        
       275.23936             27.7715               10.121       
       276.61556             27.8715               10.113       
       277.99863             27.9486               10.105       
       279.38863             28.0099               10.097       
       280.78557             28.0589               10.09        
        282.1895             28.0969               10.083       
       283.60044             28.1236               10.076       
       285.01845              28.136               10.069       
       286.44354             28.1244               10.063       
       287.87576             28.0362               10.057       
       288.23661             27.9515               10.056       
       288.76341             27.9661                10.4        
       289.31514             28.1056               10.399       
       290.76171             28.2566               10.395       
       292.21552             28.3485               10.392       
        293.6766             28.4209               10.389       
       295.14498              28.483               10.387       
       296.62071             28.5386               10.384       
       298.10381             28.5897               10.382       
       299.59433             28.6373               10.381       
        301.0923             28.6822               10.38        
       302.59776             28.7248               10.379       
       304.11075             28.7656               10.378       
        305.6313             28.8048               10.377       
       307.15946             28.8426               10.377       
       308.69526             28.8792               10.377       
       310.23873             28.9148               10.378       
       311.78993             28.9493               10.378       
       313.34888             28.9831               10.379       
       314.91562              29.016               10.38        
        316.4902             29.0483               10.382       
       318.07265             29.0799               10.383       
       319.66301             29.1109               10.385       
       321.26133             29.1413               10.387       
       322.86764             29.1712               10.39        
       324.48197             29.2006               10.392       
