# Hf
# Form Factors from Chantler Tables
# DOI: https://dx.doi.org/10.18434/T4HS32
# automatically retrived 2019-02-28 using URL https://physics.nist.gov/cgi-bin/ffast/ffast.pl

# For f_rel the second term, which is 3/5th of the Cromer-Liberman value, is used as suggested by Chantler.
# Real and imaginary part of the formfactors are: f'(E)=f1(E)+f_rel+f_NT and f''(E)=f2(E)
# see also original publication:  https://doi.org/10.1063/1.555974

# Z = 72
# f_rel = -0.8028 e/atom  (Relativistic correction estimate)
# f_NT = -0.015933 e/atom (Nuclear Thomson correction)


#        E (eV)            f1 (e/atom)          f2 (e/atom)     
          4.9                8.07421                0.0         
         4.975               7.62222                0.0         
         4.995               7.09825                0.0         
         5.025               7.62497               1.0218       
          5.1                8.07584               1.0141       
         10.69               8.92457               1.9327       
        11.42761             9.03059               2.0717       
        12.21612             9.15381               2.1926       
        13.05903             9.28691               2.2883       
        13.9601              9.41862               2.353        
        14.92335             9.53125               2.3829       
        15.95306             9.60064               2.3763       
         16.758              9.50328               2.3483       
        17.0145              9.28984               2.3358       
        17.05382             9.18348               2.3338       
        17.0829              9.00587               2.3322       
        17.1855               9.325                2.9002       
         17.442               9.6179               2.8639       
        18.23053             9.90396               2.7511       
        19.48844             10.0524               2.5735       
        20.83314             10.0556               2.4055       
        22.27063             9.94564               2.2437       
        23.8073              9.70585               2.0894       
        25.45001              9.2852               1.9469       
        27.20606             8.54989               1.8213       
        29.08327             6.97692               1.7179       
         29.988              5.07695               1.6794       
         30.447              2.01609               1.6625       
        30.5694              -1.66293              1.6584       
         30.753              2.20774               8.898        
        31.09002             5.03434               8.7271       
         31.212               5.5809               8.6669       
        33.23523             9.04873               7.7757       
        35.52846             10.0316               6.9188       
         37.338              9.46532               6.2957       
        37.9095              8.11001               6.1146       
        37.97993             7.61463               6.0929       
        38.0619              6.34795               6.0677       
        38.2905              8.26411               9.5352       
         38.862              10.0071               9.3044       
        40.60054             11.6878               8.6704       
        43.40198             12.7823               7.8368       
        46.39671             13.2949               7.0954       
        49.59809             13.4529               6.4926       
        53.02035             13.3571               6.068        
        56.67876             13.1397               5.8379       
        60.58959             12.8444               5.8027       
         63.602              12.6033               5.8945       
        64.5755              12.5128               5.9426       
        64.77028              12.485               5.9533       
        64.8351              12.4699               5.9569       
        65.2245              12.4674               6.0278       
         66.198              12.4235               6.0902       
        69.23942             12.2607               6.3289       
        74.01695             12.0617               6.7968       
        79.12411             11.9422               7.3742       
        84.58368             11.9154               8.0377       
        90.41995             11.9887               8.7649       
        96.65893              12.171               9.5362       
         100.0               14.0652               9.9402       
         100.5               14.0864               9.9998       
        101.0025             14.1083               10.06        
       101.50751             14.1307               10.119       
       102.01505             14.1537               10.179       
       102.52513             14.1773               10.239       
       103.03775             14.2014               10.299       
       103.55294              14.226               10.359       
        104.0707             14.2512               10.419       
       104.59106              14.277               10.479       
       105.11401             14.3033               10.539       
       105.63958             14.3301               10.599       
       106.16778             14.3575               10.659       
       106.69862             14.3854               10.719       
       107.23211             14.4139               10.779       
       107.76827             14.4429               10.84        
       108.30712             14.4724                10.9        
       108.84865             14.5025               10.96        
       109.39289              14.533               11.02        
       109.93986             14.5641               11.08        
       110.48956             14.5958               11.139       
       111.04201             14.6279               11.199       
       111.59722             14.6605               11.259       
        112.1552             14.6936               11.319       
       112.71598             14.7273               11.379       
       113.27956             14.7614               11.438       
       113.84596              14.796               11.498       
       114.41519             14.8312               11.557       
       114.98726             14.8668               11.617       
        115.5622             14.9029               11.676       
       116.14001             14.9394               11.735       
       116.72071             14.9765               11.794       
       117.30431              15.014               11.853       
       117.89083              15.052               11.912       
       118.48029             15.0904               11.971       
       119.07269             15.1293               12.03        
       119.66805             15.1687               12.088       
       120.26639             15.2085               12.147       
       120.86772             15.2488               12.205       
       121.47206             15.2895               12.263       
       122.07942             15.3306               12.321       
       122.68982             15.3722               12.379       
       123.30327             15.4142               12.437       
       123.91979             15.4566               12.495       
       124.53939             15.4994               12.552       
       125.16208             15.5427               12.609       
       125.78789             15.5863               12.667       
       126.41683             15.6304               12.724       
       127.04892             15.6748               12.78        
       127.68416             15.7197               12.837       
       128.32258             15.7649               12.894       
       128.96419             15.8106               12.95        
       129.60902             15.8566               13.006       
       130.25706              15.903               13.062       
       130.90835             15.9497               13.118       
       131.56289             15.9968               13.173       
        132.2207             16.0443               13.229       
       132.88181             16.0921               13.284       
       133.54621             16.1403               13.339       
       134.21395             16.1888               13.394       
       134.88502             16.2377               13.448       
       135.55944             16.2869               13.503       
       136.23724             16.3364               13.557       
       136.91842             16.3862               13.611       
       137.60302             16.4364               13.665       
       138.29103             16.4868               13.718       
       138.98249             16.5376               13.772       
        139.6774             16.5886               13.825       
       140.37579              16.64                13.878       
       141.07766             16.6916               13.93        
       141.78305             16.7435               13.983       
       142.49197             16.7957               14.035       
       143.20443             16.8482               14.087       
       143.92045             16.9009               14.139       
       144.64005             16.9538               14.191       
       145.36325              17.007               14.242       
       146.09007             17.0605               14.293       
       146.82052             17.1142               14.344       
       147.55462             17.1681               14.395       
       148.29239             17.2222               14.445       
       149.03386             17.2765               14.495       
       149.77903             17.3311               14.545       
       150.52792             17.3858               14.595       
       151.28056             17.4407               14.644       
       152.03696             17.4958               14.694       
       152.79715             17.5511               14.743       
       153.56113             17.6066               14.791       
       154.32894             17.6622               14.84        
       155.10058             17.7179               14.888       
       155.87609             17.7738               14.936       
       156.65547             17.8298               14.984       
       157.43875             17.8859               15.032       
       158.22594             17.9422               15.079       
       159.01707             17.9985               15.126       
       159.81215              18.055               15.173       
       160.61121             18.1115               15.22        
       161.41427             18.1681               15.266       
       162.22134             18.2247               15.312       
       163.03245             18.2814               15.358       
       163.84761             18.3382               15.404       
       164.66685             18.3949               15.449       
       165.49018             18.4517               15.494       
       166.31763             18.5085               15.539       
       167.14922             18.5652               15.584       
       167.98497             18.6219               15.628       
       168.82489             18.6786               15.672       
       169.66902             18.7352               15.716       
       170.51736             18.7917               15.76        
       171.36995             18.8481               15.803       
        172.2268             18.9044               15.847       
       173.08793             18.9605               15.89        
       173.95337             19.0165               15.932       
       174.82314             19.0723               15.975       
       175.69726             19.1279               16.017       
       176.57574             19.1832               16.059       
       177.45862             19.2383               16.101       
       178.34591              19.293               16.143       
       179.23764             19.3475               16.184       
       180.13383             19.4015               16.225       
        181.0345             19.4552               16.266       
       181.93967             19.5084               16.307       
       182.84937             19.5611               16.347       
       183.76362             19.6133               16.387       
       184.68244             19.6649               16.427       
       185.60585             19.7158               16.467       
       186.53388             19.7659               16.506       
       187.46655             19.8153               16.546       
       188.40388             19.8638               16.585       
        189.3459             19.9113               16.624       
       190.29263             19.9577               16.662       
       191.24409              20.003               16.701       
       192.20031             20.0469               16.739       
       193.16131             20.0893               16.777       
       194.12712              20.13                16.815       
       195.09776              20.171               16.852       
       196.07325             20.2078               16.89        
       197.05361             20.2422               16.927       
       198.03888             20.2739               16.964       
       199.02907             20.3025               17.001       
       200.02422             20.3275               17.037       
       201.02434             20.3483               17.074       
       202.02946             20.3642               17.11        
       203.03961             20.3743               17.146       
       204.05481             20.3772               17.182       
       205.07508             20.3713               17.217       
       206.10046             20.3544               17.253       
       207.13096             20.3232               17.288       
       208.16661             20.2725               17.323       
       209.20745             20.1942               17.358       
       210.25348             20.0733               17.392       
       211.30475             19.8782               17.427       
       212.36128             19.5191               17.461       
       213.42308             18.4033               17.495       
       213.54015             17.9915               17.499       
       213.85984             18.0336               19.932       
        214.4902             19.3322               19.917       
       215.56265             20.0728               19.891       
       216.64046             20.4815               19.868       
       217.72366             20.7598               19.845       
       218.81228             20.9582               19.824       
       219.90634             21.0913               19.803       
       221.00588             21.1533               19.784       
        222.1109             21.1048               19.766       
       223.22146             20.7351               19.75        
       223.61559             20.1824               19.744       
       223.98441             20.2635               21.474       
       224.33757             20.9271               21.455       
       225.45925             21.7506               21.396       
       226.58655             22.2159               21.339       
       227.71948             22.5684               21.284       
       228.85808             22.8618               21.231       
       230.00237             23.1173               21.18        
       231.15238             23.3457               21.131       
       232.30814             23.5535               21.084       
       233.46969             23.7447               21.039       
       234.63703             23.9221               20.995       
       235.81022             24.0876               20.954       
       236.98927             24.2428               20.915       
       238.17422             24.3895               20.879       
       239.36509             24.5288               20.846       
       240.56191             24.6618               20.816       
       241.76472             24.7893               20.788       
       242.97355             24.9118               20.762       
       244.18841             25.0299               20.739       
       245.40936              25.144               20.718       
        246.6364             25.2543               20.699       
       247.86959             25.3612               20.682       
       249.10893             25.4652               20.668       
       250.35448             25.5668               20.657       
       251.60625             25.6664               20.648       
       252.86428             25.7644               20.642       
        254.1286             25.8609               20.637       
       255.39925             25.9563               20.635       
       256.67624             26.0507               20.635       
       257.95962             26.1443               20.636       
       259.24942             26.2373               20.639       
       260.54567             26.3297               20.644       
        261.8484             26.4216               20.65        
       263.15764             26.5133               20.658       
       264.47343             26.6048               20.667       
       265.79579             26.6961               20.678       
       267.12477             26.7874               20.69        
        268.4604             26.8787               20.703       
        269.8027             26.9702               20.717       
       271.15171             27.0617               20.732       
       272.50747             27.1535               20.748       
       273.87001             27.2455               20.766       
       275.23936             27.3379               20.784       
       276.61556             27.4306               20.803       
       277.99863             27.5237               20.823       
       279.38863             27.6173               20.845       
       280.78557             27.7114               20.866       
        282.1895              27.806               20.889       
       283.60044             27.9012               20.913       
       285.01845              27.997               20.937       
       286.44354             28.0934               20.962       
       287.87576             28.1962               20.979       
       289.31514             28.3021               20.99        
       290.76171              28.408               21.003       
       292.21552              28.514               21.016       
        293.6766              28.62                21.029       
       295.14498             28.7262               21.043       
       296.62071             28.8325               21.057       
       298.10381             28.9391               21.072       
       299.59433              29.046               21.087       
        301.0923             29.1532               21.102       
       302.59776             29.2608               21.118       
       304.11075             29.3689               21.135       
        305.6313             29.4773               21.152       
       307.15946             29.5883               21.161       
       308.69526             29.7002               21.167       
       310.23873             29.8122               21.173       
       311.78993             29.9243               21.179       
       313.34888             30.0365               21.186       
       314.91562              30.149               21.193       
        316.4902             30.2617                21.2        
       318.07265             30.3746               21.207       
       319.66301             30.4878               21.215       
