# Hg
# Form Factors from Chantler Tables
# DOI: https://dx.doi.org/10.18434/T4HS32
# automatically retrived 2019-02-28 using URL https://physics.nist.gov/cgi-bin/ffast/ffast.pl

# For f_rel the second term, which is 3/5th of the Cromer-Liberman value, is used as suggested by Chantler.
# Real and imaginary part of the formfactors are: f'(E)=f1(E)+f_rel+f_NT and f''(E)=f2(E)
# see also original publication:  https://doi.org/10.1063/1.555974

# Z = 80
# f_rel = -1.0458 e/atom  (Relativistic correction estimate)
# f_NT = -0.017503 e/atom (Nuclear Thomson correction)


#        E (eV)            f1 (e/atom)          f2 (e/atom)     
         6.272               2.49501                0.0         
         6.368               1.42832                0.0         
         6.3936              0.200589               0.0         
         6.432               1.44193               2.3873       
         6.528               2.48802               2.3365       
        7.559334              3.1059               1.9852       
        7.675038             2.74244               1.9863       
        7.705893             2.33399               1.9879       
        7.752174             2.73258               2.777        
        7.867878             3.05471               2.7791       
         10.69               2.45759               4.1468       
        11.42761             2.16853               4.8442       
        12.21612             1.93957               5.7226       
        13.05903             1.82849               6.7781       
        13.9601              1.89424               7.9896       
        14.92335             2.19117               9.3163       
        15.95306             2.76201               10.699       
        17.05382              3.6308               12.063       
        18.23053              4.7973               13.327       
        19.48844             6.38775               14.409       
        20.83314             8.04416               15.239       
        22.27063             9.84804               15.767       
        23.8073              11.7169               15.967       
        25.45001             13.5693               15.841       
        27.20606             15.3289                15.4        
        29.08327              16.915               14.68        
        31.09002             18.2727               13.75        
        33.23523             19.3757               12.683       
        35.52846             20.2196               11.547       
        37.97993             20.8155               10.396       
        40.60054              21.183               9.2771       
        43.40198             21.3436                8.22        
        46.39671             21.3123               7.2453       
        49.59809             21.0827               6.3634       
        53.02035             20.5739               5.5774       
         56.448              19.2513               4.925        
        56.67876              19.036               4.8852       
         57.312              17.9046               4.7787       
        57.5424              16.3099               4.7409       
         57.888              17.9732               7.8113       
         58.752              19.4028               7.5739       
        60.58959             20.3418               7.1042       
        64.77028              20.982               6.1885       
        69.23942             21.0514               5.3921       
        74.01695             20.7897               4.7069       
         78.89               20.0015               4.1481       
        79.12411             19.9183               4.1242       
        80.0975              19.2918               4.0276       
        80.4195              18.4995               3.9966       
        80.9025              19.2719               5.4765       
         82.11               19.9056               5.3527       
        84.58368             20.2531               5.1173       
        90.41995             20.3692               4.6406       
         96.53               20.0752               4.1848       
        96.65893             20.0607               4.1755       
        98.0075              19.8095               4.0799       
        98.4015              19.5494               4.0524       
        98.9925              19.7596               4.4825       
        100.156               19.864               4.4029       
         100.47              19.8637               4.3818       
        101.689              19.7713               4.3008       
        102.0978             19.6098               4.274        
        102.711              19.7752               4.557        
        103.3284             19.8528               4.5185       
        104.244              19.9021               4.4623       
        110.4581             19.8318               4.1148       
        117.894              19.4244               3.8128       
        118.0797             19.4106               3.8071       
        119.6985             19.2669               3.7608       
        120.1797             19.1823               3.7483       
        120.9015             19.1886               3.8387       
        122.706              19.1141               3.8085       
        126.2272             18.8983               3.7697       
        134.9368             18.2729               3.7829       
        144.2475             17.5385               3.9599       
        154.2005             16.7188               4.3288       
        164.8404             15.8389               4.9248       
        176.2144             14.9425               5.7859       
        188.3732             14.0719               6.946        
        201.3709             13.3063               8.4265       
        215.2655              12.733               10.226       
        230.1188             12.4451               12.315       
        245.997              12.5328               14.627       
        262.9708             13.0524               17.066       
        281.1158             14.0382               19.513       
        300.5128             15.4764               21.838       
        321.2482             17.2942               23.915       
        343.4143             19.3207               25.639       
        352.604              20.0658               26.205       
        358.001              20.3115               26.499       
        359.4402             20.1357               26.573       
        361.599              20.6264               27.286       
        367.1099             21.3794               27.585       
        370.734              21.7622               27.768       
        376.4085             22.2111               28.033       
        377.9217             22.1524               28.099       
        380.1915             22.6131               28.637       
        385.866              23.4096               28.891       
        392.4405             24.1932               29.159       
        419.5189             27.1474               29.963       
        448.4657             30.0221               30.316       
        479.4098             32.7346               30.258       
         500.0               35.5563               30.041       
         502.5               35.7355               30.007       
        505.0125             35.9127               29.972       
       507.53756             36.0877               29.935       
       510.07525             36.2605               29.896       
       512.62563             36.4309               29.856       
       515.18875             36.5988               29.814       
        517.7647             36.7641               29.771       
       520.35352             36.9267               29.726       
       522.95529             37.0863               29.68        
       525.57007             37.2427               29.632       
       528.19792             37.3958               29.583       
       530.83891             37.5452               29.533       
        533.4931             37.6906               29.481       
       536.16057             37.8316               29.428       
       538.84137             37.9677               29.374       
       541.53558             38.0981               29.319       
       544.24325             38.2222               29.262       
       546.96447             38.3387               29.204       
       549.69929             38.4461               29.146       
       552.44779             38.5423               29.085       
       555.21003              38.624               29.024       
       557.98608             38.6861               28.962       
       560.77601             38.7198               28.899       
       563.57989             38.7072               28.835       
       566.39779             38.6046               28.769       
       569.22978             38.2315               28.703       
       570.28052             37.7853               28.678       
       571.71944              37.867               30.411       
       572.07593             38.1133               30.402       
        574.9363             39.0033               30.336       
       577.81099             39.4715               30.27        
       580.70004             39.8291               30.202       
       583.60354             40.1339               30.133       
       586.52156             40.4073               30.064       
       589.45417             40.6595               29.994       
       592.40144             40.8963               29.923       
       595.36345             41.1213               29.851       
       598.34026             41.3368               29.779       
       601.33196             41.5444               29.705       
       604.33862             41.7452               29.632       
       607.36032             41.9402               29.557       
       610.39712              42.13                29.482       
        613.4491              42.315               29.406       
       616.51635             42.4957               29.329       
       619.59893             42.6724               29.252       
       622.69693             42.8453               29.175       
       625.81041             43.0146               29.097       
       628.93946             43.1805               29.018       
       632.08416              43.343               28.939       
       635.24458             43.5022               28.859       
        638.4208             43.6582               28.779       
       641.61291             43.8108               28.698       
       644.82097              43.96                28.617       
       648.04508             44.1056               28.535       
        651.2853             44.2475               28.453       
       654.54173             44.3851               28.37        
       657.81444             44.5179               28.287       
       661.10351             44.6448               28.204       
       664.40903              44.764               28.12        
       667.73107             44.8721               28.036       
       671.06973             44.9604               27.952       
       674.42508             44.9967               27.867       
        675.9456             44.9425               27.828       
        677.7972              45.011               28.169       
       677.85446             45.0209               28.168       
       681.18619             45.3418               28.086       
       684.59212             45.5509               28.002       
       688.01508             45.7317               27.918       
       691.45515              45.899               27.833       
       694.91243             46.0577               27.749       
       698.38699             46.2104               27.664       
       701.87893             46.3584               27.579       
       705.38832             46.5024               27.493       
       708.91526             46.6431               27.408       
       712.45984             46.7807               27.322       
       716.02214             46.9156               27.236       
       719.60225             47.0479               27.15        
       723.20026             47.1777               27.064       
       726.81626             47.3052               26.977       
       730.45034             47.4305               26.891       
        734.1026             47.5535               26.804       
       737.77311             47.6742               26.717       
       741.46197             47.7928               26.631       
       745.16928             47.9091               26.544       
       748.89513             48.0231               26.457       
       752.63961             48.1347               26.369       
        756.4028             48.2437               26.282       
       760.18482             48.3501               26.195       
       763.98574             48.4535               26.107       
       767.80567             48.5536               26.02        
        771.6447              48.65                25.933       
       775.50292             48.7418               25.845       
       779.38044              48.828               25.757       
       783.27734             48.9068               25.67        
       787.19373             48.9748               25.582       
       791.12969              49.025               25.495       
       795.08534             49.0382               25.407       
       799.06077             48.8992               25.319       
       799.06754             48.8984               25.319       
       801.53246             48.9654               25.809       
       803.05607             49.1457               25.776       
       807.07135             49.4087               25.689       
       811.10671             49.5963               25.602       
       815.16224             49.7572               25.515       
       819.23806             49.9039               25.428       
       823.33425             50.0417               25.342       
       827.45092             50.1731               25.255       
       831.58817             50.2998               25.168       
       835.74611             50.4226               25.082       
       839.92484             50.5422               24.995       
       844.12447             50.6591               24.909       
       848.34509             50.7736               24.822       
       852.58682              50.886               24.736       
       856.84975             50.9965               24.65        
        861.134              51.1052               24.564       
       865.43967             51.2124               24.478       
       869.76687              51.318               24.392       
        874.1157             51.4223               24.306       
       878.48628             51.5253               24.22        
       882.87871              51.627               24.135       
        887.2931             51.7276               24.049       
       891.72957             51.8271               23.964       
       896.18822             51.9256               23.878       
       900.66916              52.023               23.793       
        905.1725             52.1194               23.708       
       909.69837             52.2149               23.623       
       914.24686             52.3095               23.538       
       918.81809             52.4032               23.454       
       923.41218             52.4961               23.369       
       928.02924             52.5882               23.285       
       932.66939             52.6796                23.2        
       937.33274             52.7702               23.116       
        942.0194             52.8601               23.032       
        946.7295             52.9495               22.948       
       951.46315             53.0382               22.865       
       956.22046             53.1263               22.781       
       961.00156             53.2139               22.698       
       965.80657             53.3011               22.615       
        970.6356             53.3877               22.531       
       975.48878             53.4738               22.447       
       980.36623             53.5595               22.364       
       985.26806             53.6449               22.281       
        990.1944              53.73                22.198       
       995.14537             53.8151               22.115       
       1000.1211             53.9003               22.032       
       1005.1217             53.9836               21.918       
       1010.1473             54.0644               21.804       
        1015.198             54.1431               21.692       
        1020.274             54.2195               21.58        
       1025.3754              54.294               21.468       
       1030.5023             54.3665               21.358       
       1035.6548             54.4372               21.248       
       1040.8331              54.506               21.138       
       1046.0372             54.5731               21.029       
       1051.2674             54.6385               20.921       
       1056.5238             54.7022               20.813       
       1061.8064             54.7643               20.706       
       1067.1154             54.8248               20.599       
        1072.451             54.8839               20.493       
       1077.8132             54.9414               20.388       
       1083.2023             55.0167               20.283       
       1088.6183             55.0715               20.178       
       1094.0614             55.1249               20.074       
       1099.5317              55.177               19.971       
       1105.0294             55.2278               19.868       
       1110.5545             55.2772               19.766       
       1116.1073             55.3254               19.664       
       1121.6878             55.3724               19.563       
       1127.2963             55.4182               19.462       
       1132.9328             55.4629               19.362       
       1138.5974             55.5107               19.263       
       1144.2904             55.5533               19.164       
       1150.0119             55.5945               19.065       
       1155.7619             55.6345               18.966       
       1161.5407             55.6733               18.868       
       1167.3484              55.711               18.77        
       1173.1852             55.7474               18.673       
       1179.0511             55.7828               18.577       
       1184.9464              55.817               18.481       
       1190.8711             55.8501               18.385       
       1196.8254             55.8821               18.29        
       1202.8096             55.9131               18.196       
       1208.8236              55.943               18.102       
       1214.8677             55.9719               18.009       
       1220.9421             55.9997               17.916       
       1227.0468             56.0266               17.824       
        1233.182             56.0524               17.732       
       1239.3479             56.0772               17.641       
       1245.5447             56.1011               17.551       
       1251.7724              56.124               17.461       
       1258.0312              56.146               17.371       
       1264.3214              56.167               17.282       
        1270.643              56.187               17.194       
       1276.9962             56.2061               17.106       
