# Ho
# Form Factors from Chantler Tables
# DOI: https://dx.doi.org/10.18434/T4HS32
# automatically retrived 2019-02-28 using URL https://physics.nist.gov/cgi-bin/ffast/ffast.pl

# For f_rel the second term, which is 3/5th of the Cromer-Liberman value, is used as suggested by Chantler.
# Real and imaginary part of the formfactors are: f'(E)=f1(E)+f_rel+f_NT and f''(E)=f2(E)
# see also original publication:  https://doi.org/10.1063/1.555974

# Z = 67
# f_rel = -0.6714 e/atom  (Relativistic correction estimate)
# f_NT = -0.014931 e/atom (Nuclear Thomson correction)


#        E (eV)            f1 (e/atom)          f2 (e/atom)     
         10.69               9.73216              0.29493       
        11.42761             9.93946              0.32621       
        12.21612             9.65648              0.36196       
        13.05903             9.30247              0.40282       
        13.9601               8.8488              0.44955       
        14.92335             8.24754              0.50299       
        15.95306             7.41052              0.56408       
        17.05382              6.1512              0.63386       
        18.23053             3.97033              0.71346       
        19.48844             -1.39811             0.80413       
         19.894              -5.95584             0.83457       
        20.1985              -16.0324             0.85779       
        20.2797              -28.5314             0.86404       
        20.4015              -14.9118              25.698       
         20.706              -2.86167              24.583       
        20.83314            -0.410622              24.138       
        22.27063             11.2389               19.827       
        23.8073              15.5912               16.295       
        25.45001             17.6656               13.389       
        27.20606              18.601               11.076       
        29.08327             18.9102               9.2885       
        31.09002             18.8728               7.9449       
        33.23523             18.6521               6.9671       
        35.52846             18.3458               6.2858       
        37.97993             18.0125               5.844        
        40.60054             17.6872               5.5958       
        43.40198             17.3911               5.5061       
        46.39671             17.1367               5.548        
        49.59809             16.9294               5.7012       
         50.176              16.8969               5.738        
         50.944              16.8496               5.7905       
        51.1488              16.8262               5.8051       
         51.456              16.8282               5.8567       
         52.224              16.8126               5.9165       
        53.02035             16.7927               5.9822       
        56.67876              16.739               6.3228       
        60.58959             16.7654               6.7412       
        64.77028             16.9116               7.2311       
        69.23942             17.1692               7.788        
        74.01695             17.5279               8.0914       
        79.12411             17.9004               8.3762       
        84.58368             18.2919               8.651        
        90.41995             18.7022               8.9095       
        96.65893             19.1268               9.1457       
         100.0               21.6923               9.2556       
         100.5               21.7247               9.2711       
        101.0025              21.757               9.2864       
       101.50751             21.7893               9.3015       
       102.01505             21.8216               9.3165       
       102.52513             21.8539               9.3313       
       103.03775             21.8862               9.3459       
       103.55294             21.9184               9.3603       
        104.0707             21.9506               9.3745       
       104.59106             21.9827               9.3886       
       105.11401             22.0148               9.4024       
       105.63958             22.0468               9.4161       
       106.16778             22.0787               9.4296       
       106.69862             22.1106               9.4429       
       107.23211             22.1423               9.456        
       107.76827              22.174               9.4689       
       108.30712             22.2056               9.4817       
       108.84865              22.237               9.4942       
       109.39289             22.2684               9.5065       
       109.93986             22.2995               9.5186       
       110.48956             22.3306               9.5306       
       111.04201             22.3615               9.5423       
       111.59722             22.3922               9.5538       
        112.1552             22.4228               9.5651       
       112.71598             22.4531               9.5762       
       113.27956             22.4833               9.5871       
       113.84596             22.5132               9.5978       
       114.41519              22.543               9.6082       
       114.98726             22.5724               9.6185       
        115.5622             22.6017               9.6286       
       116.14001             22.6306               9.6384       
       116.72071             22.6592               9.648        
       117.30431             22.6876               9.6574       
       117.89083             22.7156               9.6666       
       118.48029             22.7433               9.6755       
       119.07269             22.7706               9.6843       
       119.66805             22.7975               9.6928       
       120.26639              22.824               9.7011       
       120.86772             22.8501               9.7092       
       121.47206             22.8758               9.717        
       122.07942             22.9009               9.7246       
       122.68982             22.9256               9.732        
       123.30327             22.9497               9.7392       
       123.91979             22.9733               9.7462       
       124.53939             22.9962               9.7529       
       125.16208             23.0186               9.7594       
       125.78789             23.0402               9.7656       
       126.41683             23.0612               9.7717       
       127.04892             23.0814               9.7774       
       127.68416             23.1008               9.783        
       128.32258             23.1194               9.7883       
       128.96419             23.1371               9.7934       
       129.60902             23.1538               9.7983       
       130.25706             23.1696               9.8029       
       130.90835             23.1843               9.8073       
       131.56289             23.1978               9.8115       
        132.2207             23.2102               9.8154       
       132.88181             23.2213               9.8191       
       133.54621             23.2309               9.8226       
       134.21395             23.2392               9.8258       
       134.88502             23.2458               9.8287       
       135.55944             23.2508               9.8315       
       136.23724             23.2539               9.834        
       136.91842             23.2552               9.8363       
       137.60302             23.2543               9.8383       
       138.29103             23.2512               9.8401       
       138.98249             23.2456               9.8416       
        139.6774             23.2373               9.8429       
       140.37579             23.2262               9.844        
       141.07766              23.212               9.8448       
       141.78305             23.1943               9.8454       
       142.49197             23.1728               9.8457       
       143.20443             23.1472               9.8459       
       143.92045              23.117               9.8457       
       144.64005             23.0817               9.8454       
       145.36325             23.0408               9.8447       
       146.09007             22.9936               9.8439       
       146.82052             22.9393               9.8428       
       147.55462             22.8769               9.8415       
       148.29239             22.8054               9.8399       
       149.03386             22.7234               9.8381       
       149.77903             22.6293               9.8361       
       150.52792             22.5211               9.8338       
       151.28056             22.3962               9.8313       
       152.03696             22.2514               9.8285       
       152.79715             22.0827               9.8255       
       153.56113             21.8844               9.8223       
       154.32894             21.6505               9.8188       
       155.10058             21.3677               9.8151       
       155.87609             21.0222               9.8111       
       156.65547             20.5904               9.8069       
       157.43875             20.0337               9.8025       
       158.22594             19.2825               9.7979       
       159.01707             18.1924               9.793        
       159.81215             16.3791               9.7878       
       160.61121              11.974               9.7825       
       160.93012             4.52486               9.7803       
       161.06987             4.76173               24.061       
       161.41427             13.2915               23.717       
       162.22134             18.8069               22.947       
       163.03245             21.4996               22.218       
       163.84761             23.2847               21.529       
       164.66685             24.5995               20.877       
       165.49018             25.6206               20.26        
       166.31763             26.4387               19.676       
       167.14922             27.1074               19.124       
       167.98497             27.6612               18.601       
       168.82489             28.1241               18.107       
       169.66902             28.5131               17.639       
       170.51736             28.8413               17.195       
       171.36995             29.1186               16.776       
        172.2268             29.3527               16.379       
       173.08793             29.5498               16.003       
       173.95337             29.7151               15.647       
       174.82314             29.8524               15.309       
       175.69726             29.9651               14.99        
       176.57574             30.0557               14.687       
       177.45862             30.1258                14.4        
       178.34591             30.1778               14.134       
       179.23764             30.2159               13.887       
       180.13383             30.2432               13.659       
        181.0345             30.2623               13.447       
       181.93967             30.2749               13.251       
       182.84937             30.2824               13.068       
       183.76362             30.2858               12.897       
       184.68244             30.2862               12.738       
       185.60585             30.2842               12.59        
       186.53388             30.2803               12.451       
       187.46655             30.2751               12.321       
       188.40388             30.2689               12.199       
        189.3459              30.262               12.084       
       190.29263             30.2548               11.976       
       191.24409             30.2473               11.874       
       192.20031             30.2399               11.778       
       193.16131             30.2325               11.687       
       194.12712             30.2254               11.601       
       195.09776             30.2185               11.52        
       196.07325             30.2121               11.443       
       197.05361              30.206               11.369       
       198.03888             30.2005                11.3        
       199.02907             30.1954               11.233       
       200.02422             30.1908               11.17        
       201.02434             30.1868               11.109       
       202.02946             30.1832               11.052       
       203.03961             30.1802               10.996       
       204.05481             30.1778               10.943       
       205.07508             30.1758               10.892       
       206.10046             30.1743               10.844       
       207.13096             30.1734               10.797       
       208.16661             30.1728               10.752       
       209.20745             30.1728               10.708       
       210.25348             30.1732               10.666       
       211.30475              30.174               10.626       
       212.36128             30.1752               10.587       
       213.42308             30.1767               10.549       
        214.4902             30.1786               10.512       
       215.56265             30.1809               10.477       
       216.64046             30.1834               10.443       
       217.72366             30.1863               10.409       
       218.81228             30.1894               10.377       
       219.90634             30.1928               10.345       
       221.00588             30.1964               10.315       
        222.1109             30.2002               10.285       
       223.22146             30.2042               10.256       
       224.33757             30.2084               10.228       
       225.45925             30.2127               10.201       
       226.58655             30.2171               10.174       
       227.71948             30.2217               10.148       
       228.85808             30.2263               10.122       
       230.00237              30.231               10.097       
       231.15238             30.2358               10.073       
       232.30814             30.2406               10.049       
       233.46969             30.2454               10.026       
       234.63703             30.2502               10.003       
       235.81022              30.255               9.9804       
       236.98927             30.2598               9.9586       
       238.17422             30.2645               9.9372       
       239.36509             30.2692               9.9163       
       240.56191             30.2737               9.8958       
       241.76472             30.2782               9.8757       
       242.97355             30.2825               9.8561       
       244.18841             30.2868               9.8368       
       245.40936             30.2908               9.8179       
        246.6364             30.2947               9.7994       
       247.86959             30.2984               9.7812       
       249.10893             30.3019               9.7634       
       250.35448             30.3052               9.746        
       251.60625             30.3082               9.7289       
       252.86428              30.311               9.7122       
        254.1286             30.3135               9.6958       
       255.39925             30.3157               9.6798       
       256.67624             30.3176               9.664        
       257.95962             30.3191               9.6486       
       259.24942             30.3203               9.6335       
       260.54567              30.321               9.6188       
        261.8484             30.3214               9.6043       
       263.15764             30.3213               9.5902       
       264.47343             30.3207               9.5764       
       265.79579             30.3196               9.5629       
       267.12477              30.318               9.5496       
        268.4604             30.3158               9.5367       
        269.8027              30.313               9.5242       
       271.15171             30.3095               9.5119       
       272.50747             30.3052               9.4999       
       273.87001             30.3002               9.4882       
       275.23936             30.2943               9.4768       
       276.61556             30.2875               9.4657       
       277.99863             30.2797               9.455        
       279.38863             30.2708               9.4445       
       280.78557             30.2607               9.4343       
        282.1895             30.2492               9.4244       
       283.60044             30.2362               9.4148       
       285.01845             30.2215               9.4056       
       286.44354             30.2049               9.3966       
       287.87576             30.1861               9.3879       
       289.31514             30.1648               9.3795       
       290.76171             30.1405               9.3714       
       292.21552             30.1126               9.3637       
        293.6766             30.0806               9.3562       
       295.14498             30.0432               9.349        
       296.62071             29.9991               9.3421       
       298.10381             29.9462               9.3356       
       299.59433              29.881               9.3293       
        301.0923             29.7978               9.3233       
       302.59776             29.6848               9.3176       
       304.11075             29.5135               9.3123       
        305.6313             29.1672               9.3072       
        306.2977             28.7365               9.3051       
       306.90231             28.7368               10.468       
       307.15946             28.9651               10.468       
       308.69526             29.4571               10.468       
       310.23873             29.6653               10.468       
       311.78993             29.8008               10.468       
       313.34888             29.9022               10.469       
       314.91562             29.9837               10.47        
        316.4902              30.052               10.471       
       318.07265             30.1109               10.473       
       319.66301             30.1626               10.475       
       321.26133             30.2087               10.477       
       322.86764             30.2501               10.479       
       324.48197             30.2875               10.482       
       326.10438             30.3214               10.485       
       327.73491              30.352               10.489       
       329.37358             30.3795               10.492       
       331.02045             30.4038               10.496       
       332.67555             30.4247               10.501       
       334.33893             30.4417               10.505       
       336.01062             30.4539               10.51        
       337.69068             30.4596               10.515       
       339.37913             30.4548               10.521       
       341.07602             30.4294               10.527       
        342.7814             30.3304               10.533       
       343.11527              30.27                10.534       
