# Ir
# Form Factors from Chantler Tables
# DOI: https://dx.doi.org/10.18434/T4HS32
# automatically retrived 2019-02-27 using URL https://physics.nist.gov/cgi-bin/ffast/ffast.pl
#
# Z = 77
# f_rel = -1.6105 e/atom  (Relativistic correction estimate)
# f_NT = -0.016921 e/atom (Nuclear Thomson correction)


#        E (eV)            f1 (e/atom)          f2 (e/atom)     
        6.717466             4.56877                0.0         
        6.820284             4.16587                0.0         
        6.847702             3.73576                0.0         
        6.88883              4.14282              0.81569       
        6.991648             4.45737              0.80003       
        7.901491             4.03188               0.6995       
        8.022432             3.53288              0.69891       
        8.054683              2.9688              0.69931       
        8.103059             3.53226               1.7893       
         8.224               3.99314               1.7635       
         10.69               3.38848               2.2596       
        11.42761             2.96561               2.763        
        12.21612             2.55014               3.4451       
        13.05903             2.18886               4.3234       
        13.9601              1.94176               5.4058       
        14.92335             1.88002               6.6815       
        15.95306             2.07886               8.113        
        17.05382              2.6057               9.6315       
        18.23053             3.50548               11.138       
        19.48844             4.78653               12.515       
        20.83314             6.44486               13.638       
        22.27063             8.33051               14.402       
        23.8073              10.3573               14.736       
        25.45001             12.4238               14.616       
        27.20606             14.3236               14.069       
        29.08327             15.9807               13.163       
        31.09002             17.3146               11.994       
        33.23523             18.2867               10.67        
        35.52846             18.8911               9.2918       
        37.97993             19.1469               7.9469       
        40.60054             19.0841               6.6989       
        43.40198             18.7149               5.5846       
        46.39671             17.9644               4.619        
         49.49               16.1569               3.8261       
        49.59809              16.018               3.8017       
        50.2475              14.4719               3.6588       
        50.4495              12.5153               3.6158       
        50.7525              14.5315               7.3654       
         51.51               16.2312               7.078        
        53.02035             17.2269               6.5492       
        56.67876             17.6944               5.4755       
         59.29               17.3548               4.8462       
        60.1975              16.9764               4.6499       
        60.4395              16.6584               4.5994       
        60.58959             16.6908               5.0898       
        60.8025              16.8392               5.0424       
         61.71               16.7342               4.8471       
         61.74               16.7231               4.8408       
         62.132               16.527               4.7598       
         62.685              15.9261               4.6488       
         62.937              14.9598               4.5995       
         63.083              15.0907               6.4019       
        63.3366              15.7433               6.3493       
         63.717              16.3888               6.6245       
         64.26               16.8506               6.5117       
         64.668              17.0671               6.4291       
        64.77028             17.1121               6.4087       
        69.23942             17.9097               5.6306       
        74.01695             18.0316               4.985        
        79.12411             17.8796               4.4354       
        84.58368             17.5331               3.9991       
        90.41995             17.0275               3.696        
         93.296              16.7328               3.6047       
         94.724              16.5559               3.5729       
        95.1048              16.4751               3.5659       
         95.676              16.4603               3.6404       
        96.65893             16.3907               3.6286       
         97.104              16.3524               3.6245       
        103.3284             15.7408               3.6506       
        110.4581             14.9948               3.8583       
        118.0797             14.1999               4.2715       
        126.2272             13.3897               4.9107       
        134.9368             12.6056               5.7993       
        144.2475             11.8996               6.9456       
        154.2005             11.3326               8.3499       
        164.8404             10.9631               9.9997       
        176.2144             10.8566               11.853       
        188.3732             11.1168               13.856       
        201.3709             11.7275               15.936       
        215.2655             12.6646               18.011       
        230.1188             13.9679               19.993       
        245.997              15.6081               21.797       
        262.9708             17.5168               23.315       
        281.1158             19.5218               24.462       
        289.002              20.2676               24.82        
        293.4255             20.4939               24.987       
        294.6051             20.3212               25.027       
        296.3745             20.7932               25.669       
        300.5128             21.4565               25.82        
        300.798              21.4938               25.829       
        305.172              22.0091               25.968       
        309.843              22.3954               26.095       
        311.0886             22.3178               26.126       
        312.957              22.7603               26.615       
        317.628              23.4958               26.729       
        321.2482             23.9718               26.805       
        343.4143              26.506               27.073       
        367.1099             28.8296               27.057       
        392.4405             30.9648               26.807       
        419.5189             32.8844               26.369       
        448.4657             34.5337               25.788       
        479.4098             35.6763               25.103       
        484.414              35.7171               24.989       
        491.8285             35.3653               24.819       
        493.8057             34.6352               24.774       
        496.7715              35.591               26.311       
         500.0               37.4872               26.241       
         502.5               37.7853               26.186       
        505.0125             38.0335               26.131       
       507.53756             38.2526               26.076       
       510.07525             38.4523               26.02        
       512.62563             38.6381               25.964       
       515.18875             38.8133               25.908       
        517.7647             38.9802               25.852       
       520.35352             39.1402               25.795       
       522.95529             39.2943               25.738       
       525.57007             39.4434               25.681       
       528.19792              39.588               25.624       
       530.83891             39.7286               25.566       
        533.4931             39.8656               25.508       
       536.16057             39.9991               25.45        
       538.84137             40.1295               25.392       
       541.53558             40.2568               25.333       
       544.24325             40.3811               25.274       
       546.96447             40.5024               25.215       
       549.69929             40.6207               25.156       
       552.44779             40.7359               25.097       
       555.21003             40.8478               25.037       
       557.98608             40.9559               24.977       
       560.77601             41.0597               24.917       
       563.57989             41.1583               24.857       
       566.39779             41.2499               24.797       
       569.22978             41.3313               24.736       
       572.07593             41.3942               24.675       
        574.9363             41.4089               24.614       
       576.26318             41.3485               24.586       
       577.81099             41.3893               24.925       
       577.93677             41.4134               24.923       
       580.70004              41.693               24.866       
       583.60354             41.8739               24.806       
       586.52156             42.0278               24.746       
       589.45417             42.1688               24.686       
       592.40144              42.302               24.626       
       595.36345             42.4297               24.566       
       598.34026             42.5534               24.505       
       601.33196             42.6736               24.444       
       604.33862             42.7911               24.384       
       607.36032              42.906               24.323       
       610.39712             43.0188               24.262       
        613.4491             43.1295                24.2        
       616.51635             43.2383               24.139       
       619.59893             43.3453               24.078       
       622.69693             43.4505               24.016       
       625.81041             43.5541               23.954       
       628.93946              43.656               23.892       
       632.08416             43.7563               23.831       
       635.24458             43.8549               23.768       
        638.4208             43.9518               23.706       
       641.61291             44.0471               23.644       
       644.82097             44.1405               23.582       
       648.04508             44.2321               23.519       
        651.2853             44.3216               23.457       
       654.54173              44.409               23.394       
       657.81444             44.4939               23.331       
       661.10351             44.5762               23.268       
       664.40903             44.6552               23.205       
       667.73107             44.7304               23.142       
       671.06973             44.8008               23.079       
       674.42508             44.8648               23.015       
        677.7972             44.9197               22.952       
       681.18619             44.9601               22.889       
       684.59212             44.9722               22.825       
       688.01508             44.8994               22.761       
       688.99585             44.8169               22.743       
       691.20417             44.8764               23.242       
       691.45515             44.9183               23.237       
       694.91243             45.2283               23.174       
       698.38699             45.4135               23.111       
       701.87893             45.5652               23.048       
       705.38832             45.7008               22.985       
       708.91526             45.8266               22.921       
       712.45984             45.9457               22.858       
       716.02214              46.06                22.794       
       719.60225             46.1705               22.731       
       723.20026             46.2779               22.667       
       726.81626             46.3828               22.604       
       730.45034             46.4855               22.54        
        734.1026             46.5862               22.476       
       737.77311             46.6852               22.412       
       741.46197             46.7827               22.349       
       745.16928             46.8787               22.285       
       748.89513             46.9735               22.221       
       752.63961              47.067               22.157       
        756.4028             47.1594               22.093       
       760.18482             47.2507               22.029       
       763.98574              47.341               21.964       
       767.80567             47.4303                21.9        
        771.6447             47.5187               21.836       
       775.50292             47.6063               21.772       
       779.38044             47.6929               21.707       
       783.27734             47.7787               21.643       
       787.19373             47.8637               21.578       
       791.12969             47.9479               21.514       
       795.08534             48.0314               21.449       
       799.06077             48.1141               21.385       
       803.05607             48.1961               21.32        
       807.07135             48.2773               21.256       
       811.10671             48.3579               21.191       
       815.16224             48.4378               21.126       
       819.23806             48.5171               21.062       
       823.33425             48.5957               20.997       
       827.45092             48.6737               20.932       
       831.58817             48.7511               20.867       
       835.74611              48.828               20.803       
       839.92484             48.9041               20.737       
       844.12447             48.9795               20.671       
       848.34509             49.0541               20.605       
       852.58682             49.1281               20.539       
       856.84975             49.2014               20.474       
        861.134               49.274               20.408       
       865.43967              49.346               20.342       
       869.76687             49.4173               20.276       
        874.1157              49.488               20.21        
       878.48628              49.558               20.144       
       882.87871             49.6275               20.078       
        887.2931              49.709               20.012       
       891.72957             49.7773               19.946       
       896.18822              49.845               19.88        
       900.66916             49.9121               19.814       
        905.1725             49.9787               19.749       
       909.69837             50.0446               19.683       
       914.24686              50.11                19.617       
       918.81809             50.1748               19.551       
       923.41218             50.2391               19.485       
       928.02924             50.3029               19.42        
       932.66939             50.3661               19.354       
       937.33274             50.4365               19.288       
        942.0194             50.4988               19.223       
        946.7295             50.5606               19.157       
       951.46315             50.6219               19.091       
       956.22046             50.6828               19.026       
       961.00156             50.7432               18.96        
       965.80657             50.8031               18.894       
        970.6356             50.8627               18.829       
       975.48878              50.922               18.764       
       980.36623             50.9808               18.698       
       985.26806             51.0392               18.632       
        990.1944             51.0974               18.567       
       995.14537             51.1553               18.501       
       1000.1211             51.2133               18.435       
       1005.1217             51.2831               18.349       
       1010.1473             51.3507               18.263       
        1015.198              51.416               18.177       
        1020.274             51.4793               18.092       
       1025.3754             51.5405               18.007       
       1030.5023             51.5998               17.922       
       1035.6548             51.6573               17.837       
       1040.8331             51.7131               17.753       
       1046.0372             51.7671               17.67        
       1051.2674             51.8196               17.586       
       1056.5238             51.8705               17.503       
       1061.8064             51.9199               17.42        
       1067.1154             51.9679               17.338       
        1072.451             52.0145               17.256       
       1077.8132             52.0598               17.174       
       1083.2023             52.1039               17.093       
       1088.6183             52.1466               17.012       
       1094.0614             52.1882               16.931       
       1099.5317             52.2286               16.851       
       1105.0294             52.2679               16.771       
       1110.5545             52.3062               16.692       
       1116.1073             52.3434               16.613       
       1121.6878             52.3795               16.534       
       1127.2963             52.4147               16.456       
       1132.9328              52.449               16.378       
       1138.5974             52.4825               16.297       
       1144.2904             52.5149               16.211       
       1150.0119             52.5462               16.126       
       1155.7619             52.5762               16.041       
       1161.5407             52.6052               15.957       
       1167.3484             52.6331               15.873       
       1173.1852             52.6598               15.79        
       1179.0511             52.6855               15.707       
       1184.9464             52.7099               15.616       
       1190.8711             52.7325               15.524       
       1196.8254             52.7535               15.427       
       1202.8096             52.7725               15.331       
       1208.8236             52.7896               15.235       
       1214.8677              52.805               15.141       
       1220.9421             52.8186               15.047       
       1227.0468             52.8305               14.954       
        1233.182             52.8407               14.861       
       1239.3479             52.8493               14.77        
       1245.5447             52.8564               14.679       
       1251.7724             52.8616               14.583       
       1258.0312             52.8649               14.488       
       1264.3214             52.8663               14.393       
        1270.643             52.8657                14.3        
       1276.9962             52.8632               14.207       
       1283.3812              52.859               14.115       
       1289.7981             52.8529               14.023       
