# Kr
# Form Factors from Chantler Tables
# DOI: https://dx.doi.org/10.18434/T4HS32
# automatically retrived 2019-02-27 using URL https://physics.nist.gov/cgi-bin/ffast/ffast.pl
#
# Z = 36
# f_rel = -0.23566 e/atom  (Relativistic correction estimate)
# f_NT = -0.008484 e/atom (Nuclear Thomson correction)


#        E (eV)            f1 (e/atom)          f2 (e/atom)     
         10.69               9.29037                0.0         
        11.42761             9.28534                0.0         
        12.21612             9.27958                0.0         
        13.05903             9.27298                0.0         
        13.9601              9.26544                0.0         
        14.92335             9.25679                0.0         
        15.95306              9.2469                0.0         
        17.05382             9.23556                0.0         
        18.23053             9.22256                0.0         
        19.48844             9.20767                0.0         
        20.83314             9.19057                0.0         
        22.27063             9.17096                0.0         
        23.8073              9.14843                0.0         
        25.45001             9.12254                0.0         
        27.20606             9.09275                0.0         
        29.08327             9.05845                0.0         
        31.09002              9.0189                0.0         
        33.23523             8.97325                0.0         
        35.52846             8.92046                0.0         
        37.97993             8.85929                0.0         
        40.60054             8.78826                0.0         
        43.40198             8.70556                0.0         
        46.39671             8.60896                0.0         
        49.59809             8.49567                0.0         
        53.02035             8.36216                0.0         
        56.67876             8.20386                0.0         
        60.58959             8.01472                0.0         
        64.77028             7.78638                0.0         
        69.23942              7.5068                0.0         
        74.01695             7.15722                0.0         
        79.12411             6.70431                0.0         
        84.58368             6.06764                0.0         
         87.122              5.64666                0.0         
        88.4555              5.27889                0.0         
        88.8111              5.01683                0.0         
        89.3445              5.11898              0.41142       
        90.41995             5.09657              0.46449       
         90.678              5.07502              0.47811       
        96.65893             4.30507              0.91368       
        103.3284             3.35762               1.726        
        110.4581             2.47607               2.9189       
        118.0797             1.80997               4.4806       
        126.2272             1.49791               6.3314       
        134.9368             1.63144               8.3376       
        144.2475             2.23705               10.342       
        154.2005             3.27653               12.194       
        164.8404             4.66077               13.777       
        176.2144             6.26791               15.016       
        188.3732             7.95392               15.88        
        201.3709             9.52269               16.377       
        209.524              10.1694               16.509       
        212.731              10.0543               16.53        
        213.5862             9.60025               16.533       
        214.869              10.2597               17.597       
        215.2655              10.403               17.602       
        218.246              11.0418               17.627       
        221.5865             11.4044               17.641       
        222.4773             11.3064               17.643       
        223.8135             11.7277                18.1        
        227.154              12.3826               18.11        
        230.1188             12.8377               18.11        
        245.997              14.8064               17.991       
        262.9708             16.4724               17.686       
        281.1158             17.7817               17.23        
        282.5634             17.8453               17.189       
        286.8883             17.8572               17.066       
        288.0417             17.5673               17.033       
        289.7716              18.072               17.719       
        294.0966             18.7115               17.597       
        300.5128             19.3348               17.41        
        321.2482              20.866               16.78        
        343.4143             22.1571               16.086       
        367.1099             23.2881               15.344       
        392.4405             24.2803               14.562       
        419.5189             25.1426               13.759       
        448.4657              25.885               12.949       
        479.4098             26.5175               12.145       
        512.4891              27.05                11.356       
        547.8508             27.4917               10.589       
        585.6525              27.851               9.8506       
        626.0625             28.1356               9.1436       
        669.2609             28.3463               8.471        
        715.4399             28.5005               7.8343       
        764.8052             28.5971               7.2342       
        817.5768             28.6402               6.6708       
        873.9896             28.6334               6.1435       
         900.0                28.882               5.9226       
         904.5               28.8793               5.8857       
        909.0225             28.8765               5.849        
       913.56761             28.8735               5.8125       
       918.13545             28.8703               5.7762       
       922.72613             28.8669               5.7401       
       927.33976             28.8633               5.7041       
       931.97646             28.8596               5.6684       
       936.63634             28.8558               5.6328       
       941.31952             28.8519               5.5975       
       946.02612             28.8479               5.5624       
       950.75625             28.8438               5.5274       
       955.51003             28.8397               5.4927       
       960.28758             28.8357               5.4582       
       965.08902             28.8318               5.4238       
       969.91446              28.828               5.3897       
       974.76404             28.8245               5.3558       
       979.63786             28.8214               5.322        
       984.53605             28.8188               5.2885       
       989.45873             28.8169               5.2552       
       994.40602             28.8161               5.2221       
       999.37805             28.8167               5.1892       
       1004.3749             28.8063               5.1494       
       1009.3968             28.7937               5.109        
       1014.4438             28.7805               5.0689       
        1019.516             28.7668               5.0291       
       1024.6136             28.7525               4.9897       
       1029.7367             28.7376               4.9507       
       1034.8853             28.7222               4.9119       
       1040.0598             28.7063               4.8736       
       1045.2601             28.6898               4.8355       
       1050.4864             28.6727               4.7978       
       1055.7388             28.6551               4.7604       
       1061.0175              28.637               4.7233       
       1066.3226             28.6183               4.6866       
       1071.6542             28.5991               4.6502       
       1077.0125             28.5793               4.6141       
       1082.3975             28.5589               4.5783       
       1087.8095             28.5381               4.5428       
       1093.2486             28.5166               4.5076       
       1098.7148             28.4946               4.4728       
       1104.2084              28.472               4.4382       
       1109.7294             28.4488               4.404        
       1115.2781             28.4251                4.37        
       1120.8545             28.4007               4.3363       
       1126.4587             28.3758               4.3029       
        1132.091             28.3503               4.2699       
       1137.7515             28.3242               4.2371       
       1143.4402             28.2974               4.2045       
       1149.1574             28.2701               4.1723       
       1154.9032              28.242               4.1402       
       1160.6777             28.2134               4.1081       
       1166.4811              28.184               4.0762       
       1172.3135             28.1539               4.0446       
       1178.1751             28.1231               4.0132       
        1184.066             28.0915               3.9822       
       1189.9863             28.0592               3.9514       
       1195.9362             28.0261               3.9208       
       1201.9159             27.9923               3.8906       
       1207.9255             27.9576               3.8606       
       1213.9651             27.9222               3.8308       
        1220.035             27.8858               3.8014       
       1226.1351             27.8487               3.7721       
       1232.2658             27.8106               3.7431       
       1238.4271             27.7716               3.7144       
       1244.6193             27.7317               3.6859       
       1250.8424             27.6908               3.6577       
       1257.0966             27.6489               3.6297       
       1263.3821              27.606               3.602        
        1269.699              27.562               3.5744       
       1276.0475              27.517               3.5472       
       1282.4277             27.4707               3.5201       
       1288.8399             27.4234               3.4933       
        1295.284             27.3748               3.4667       
       1301.7605             27.3249               3.4403       
       1308.2693             27.2737               3.4142       
       1314.8106             27.2211               3.3883       
       1321.3847             27.1672               3.3626       
       1327.9916             27.1117               3.3371       
       1334.6316             27.0547               3.3119       
       1341.3047             26.9961               3.2868       
       1348.0112             26.9358               3.262        
       1354.7513             26.8737               3.2374       
        1361.525             26.8098               3.213        
       1368.3327             26.7439               3.1888       
       1375.1743              26.676               3.1648       
       1382.0502              26.606               3.141        
       1388.9605             26.5337               3.1174       
       1395.9053             26.4591               3.094        
       1402.8848             26.3819               3.0708       
       1409.8992             26.3021               3.0478       
       1416.9487             26.2195               3.025        
       1424.0335             26.1339               3.0024       
       1431.1536             26.0451                2.98        
       1438.3094              25.953               2.9577       
       1445.5009             25.8573               2.9357       
       1452.7284             25.7577               2.9138       
       1459.9921              25.654               2.8921       
        1467.292             25.5459               2.8706       
       1474.6285              25.433               2.8493       
       1482.0016              25.315               2.8282       
       1489.4117             25.1914               2.8072       
       1496.8587             25.0618               2.7864       
        1504.343             24.9256               2.7658       
       1511.8647             24.7821               2.7453       
        1519.424             24.6308               2.7251       
       1527.0212             24.4707               2.705        
       1534.6563             24.3009               2.685        
       1542.3295             24.1203               2.6652       
       1550.0412             23.9276               2.6456       
       1557.7914             23.7211               2.6262       
       1565.5804             23.4991               2.6069       
       1573.4083             23.2591               2.5878       
       1581.2753             22.9983               2.5688       
       1589.1817             22.7131                2.55        
       1597.1276             22.3986               2.5313       
       1605.1132             22.0489               2.5128       
       1613.1388             21.6552               2.4945       
       1621.2045             21.2058               2.4763       
       1629.3105             20.6827               2.4582       
       1637.4571             20.0577               2.4403       
       1645.6443             19.2819               2.4226       
       1653.8726             18.2574               2.4049       
       1662.1419             16.7363               2.3875       
       1670.4526             13.6146                2.37        
       1674.7007             4.64497               2.3607       
       1675.0994             4.49118               11.391       
       1678.8049             13.0021               11.35        
       1687.1989              16.134               11.259       
       1695.6349             17.3862               11.169       
       1704.1131              18.006               11.079       
       1712.6337             18.1618               10.99        
       1721.1968             17.5651               10.902       
       1726.9841              13.239               10.843       
       1727.4159              13.193               15.298       
       1729.8028             16.8801               15.264       
       1738.4518             19.4458               15.143       
       1747.1441             20.6785               15.022       
       1755.8798             21.5639               14.902       
       1764.6592              22.272               14.783       
       1773.4825             22.8675               14.665       
       1782.3499             23.3827               14.548       
       1791.2617             23.8363               14.432       
        1800.218             24.2405               14.317       
       1809.2191             24.6033               14.203       
       1818.2652             24.9304               14.09        
       1827.3565             25.2257               13.978       
       1836.4933             25.4918               13.867       
       1845.6757             25.7302               13.756       
       1854.9041             25.9413               13.647       
       1864.1786             26.1241               13.538       
       1873.4995             26.2757               13.43        
        1882.867              26.39                13.324       
       1892.2814             26.4538               13.218       
       1901.7428             26.4363               13.112       
       1911.2515             26.2375               13.008       
       1919.4747             25.2812               12.919       
       1920.8077             24.0373               12.905       
       1922.5253             25.3179               14.817       
       1930.4118             26.6053               14.725       
       1940.0638             27.2335               14.613       
       1949.7642             27.6713               14.502       
        1959.513             28.0275               14.392       
       1969.3105             28.3362               14.283       
       1979.1571             28.6126               14.175       
       1989.0529             28.8651               14.068       
       1998.9981             29.0986               13.961       
       2008.9931             29.3165               13.855       
       2019.0381             29.5207               13.751       
       2029.1333             29.7142               13.65        
        2039.279             29.8985               13.549       
       2049.4754             30.0744               13.449       
       2059.7227             30.2428               13.351       
       2070.0213             30.4043               13.253       
       2080.3714             30.5596               13.156       
       2090.7733             30.7091               13.06        
       2101.2272             30.8532               12.965       
       2111.7333             30.9923               12.87        
        2122.292             31.1269               12.777       
       2132.9034             31.2571               12.684       
        2143.568             31.3834               12.592       
       2154.2858             31.5059               12.501       
       2165.0572             31.6249               12.411       
       2175.8825             31.7407               12.322       
       2186.7619             31.8532               12.231       
       2197.6957             31.9623               12.142       
       2208.6842             32.0683               12.053       
       2219.7276             32.1713               11.964       
       2230.8263             32.2715               11.877       
       2241.9804              32.369               11.79        
       2253.1903              32.464               11.703       
       2264.4562             32.5564               11.617       
       2275.7785             32.6462               11.531       
       2287.1574             32.7336               11.446       
       2298.5932             32.8188               11.361       
       2310.0862             32.9017               11.277       
       2321.6366             32.9825               11.194       
       2333.2448             33.0613               11.112       
        2344.911             33.1382               11.03        
       2356.6356             33.2132               10.948       
       2368.4187             33.2864               10.868       
       2380.2608             33.3578               10.788       
       2392.1621             33.4275               10.708       
        2404.123             33.4957               10.629       
       2416.1436             33.5622               10.551       
       2428.2243             33.6273               10.473       
       2440.3654             33.6909               10.396       
       2452.5672             33.7531               10.319       
       2464.8301              33.814               10.243       
       2477.1542             33.8736               10.168       
        2489.54               33.932               10.093       
       2501.9877             33.9892               10.018       
       2514.4976             34.0449               9.9428       
       2527.0701             34.0993               9.8684       
       2539.7055             34.1524               9.7945       
