# Lu
# Form Factors from Chantler Tables
# DOI: https://dx.doi.org/10.18434/T4HS32
# automatically retrived 2019-02-27 using URL https://physics.nist.gov/cgi-bin/ffast/ffast.pl
#
# Z = 71
# f_rel = -1.303 e/atom  (Relativistic correction estimate)
# f_NT = -0.015805 e/atom (Nuclear Thomson correction)


#        E (eV)            f1 (e/atom)          f2 (e/atom)     
         6.762               10.9733                0.0         
         6.8655              10.7902                0.0         
         6.8931               10.576                0.0         
         6.9345              10.7961              0.41866       
         7.038               10.9845              0.40834       
         10.69               11.0473              0.27823       
        11.42761             10.9705               0.2819       
        12.21612             10.8782               0.2904       
        13.05903             10.7684              0.30371       
        13.9601              10.6376              0.32202       
        14.92335             10.4815               0.3457       
        15.95306             10.2939              0.37529       
        17.05382             10.0658              0.41148       
        18.23053             9.78414              0.45519       
        19.48844              9.4284              0.50748       
        20.83314             8.84927              0.56964       
        22.27063             8.21276              0.64316       
        23.8073              7.26572              0.72979       
        25.45001             5.62002              0.83149       
        27.20606             1.17691               0.9505       
         27.44              -0.278294             0.96715       
         27.86               -6.41303             0.99751       
         27.972              -13.9079              1.0057       
         28.14               -5.90857              15.849       
         28.56               1.14942               15.393       
        29.08327             4.64754               14.857       
        31.09002              10.259               13.092       
        33.23523             12.8947               11.446       
        35.52846              14.313               9.9275       
        37.97993             15.0174               8.6395       
        40.60054             15.2796               7.6209       
        43.40198             15.2719               6.8706       
        46.39671             15.1082               6.3673       
        49.59809             14.8634               6.0817       
        53.02035             14.5849               5.9838       
         55.664              14.3716               6.0153       
         56.516              14.2925               6.0412       
        56.67876             14.2695               6.0469       
        56.7432              14.2545               6.0493       
         57.084              14.2534               6.106        
         57.936              14.2164               6.1436       
        60.58959              14.074               6.2959       
        64.77028             13.8832               6.622        
        69.23942             13.7405               7.054        
        74.01695             13.6575               7.5802       
        79.12411             13.6432               8.1914       
        84.58368              13.723               8.8798       
        90.41995             13.8739               9.6388       
        96.65893             14.1238               10.463       
         100.0               16.2066               10.906       
         100.5               16.2342               10.973       
        101.0025             16.2624               11.039       
       101.50751             16.2914               11.106       
       102.01505             16.3211               11.173       
       102.52513             16.3515               11.241       
       103.03775             16.3826               11.309       
       103.55294             16.4144               11.377       
        104.0707              16.447               11.446       
       104.59106             16.4804               11.514       
       105.11401             16.5145               11.584       
       105.63958             16.5493               11.653       
       106.16778              16.585               11.723       
       106.69862             16.6214               11.793       
       107.23211             16.6587               11.863       
       107.76827             16.6967               11.934       
       108.30712             16.7356               12.005       
       108.84865             16.7753               12.076       
       109.39289             16.8159               12.148       
       109.93986             16.8573               12.219       
       110.48956             16.8997               12.292       
       111.04201             16.9429               12.364       
       111.59722              16.987               12.437       
        112.1552              17.032               12.51        
       112.71598              17.078               12.583       
       113.27956             17.1249               12.656       
       113.84596             17.1727               12.73        
       114.41519             17.2216               12.804       
       114.98726             17.2714               12.879       
        115.5622             17.3223               12.953       
       116.14001             17.3742               13.028       
       116.72071             17.4272               13.104       
       117.30431             17.4812               13.179       
       117.89083             17.5364               13.255       
       118.48029             17.5927               13.331       
       119.07269             17.6501               13.407       
       119.66805             17.7086               13.484       
       120.26639             17.7684               13.561       
       120.86772             17.8294               13.638       
       121.47206             17.8916               13.715       
       122.07942             17.9551               13.793       
       122.68982             18.0199               13.871       
       123.30327              18.086               13.949       
       123.91979             18.1534               14.027       
       124.53939             18.2223               14.106       
       125.16208             18.2926               14.185       
       125.78789             18.3644               14.264       
       126.41683             18.4376               14.344       
       127.04892             18.5124               14.423       
       127.68416             18.5888               14.503       
       128.32258             18.6668               14.583       
       128.96419             18.7465               14.664       
       129.60902             18.8279               14.742       
       130.25706             18.9117               14.772       
       130.90835             18.9951               14.803       
       131.56289              19.078               14.833       
        132.2207             19.1605               14.863       
       132.88181             19.2426               14.892       
       133.54621             19.3244               14.921       
       134.21395             19.4058               14.95        
       134.88502             19.4868               14.978       
       135.55944             19.5675               15.006       
       136.23724             19.6479               15.033       
       136.91842             19.7279               15.06        
       137.60302             19.8076               15.086       
       138.29103             19.8869               15.112       
       138.98249              19.966               15.138       
        139.6774             20.0447               15.163       
       140.37579             20.1231               15.188       
       141.07766             20.2012               15.213       
       141.78305              20.279               15.237       
       142.49197             20.3564               15.26        
       143.20443             20.4336               15.283       
       143.92045             20.5104               15.306       
       144.64005             20.5868               15.329       
       145.36325              20.663               15.35        
       146.09007             20.7388               15.372       
       146.82052             20.8142               15.393       
       147.55462             20.8893               15.413       
       148.29239              20.964               15.433       
       149.03386             21.0384               15.453       
       149.77903             21.1123               15.472       
       150.52792             21.1859               15.491       
       151.28056              21.259               15.509       
       152.03696             21.3317               15.527       
       152.79715              21.404               15.545       
       153.56113             21.4757               15.562       
       154.32894              21.547               15.578       
       155.10058             21.6178               15.594       
       155.87609             21.6881               15.61        
       156.65547             21.7578               15.625       
       157.43875             21.8269               15.639       
       158.22594             21.8955               15.654       
       159.01707             21.9633               15.667       
       159.81215             22.0306               15.68        
       160.61121             22.0971               15.693       
       161.41427             22.1628               15.706       
       162.22134             22.2278               15.717       
       163.03245             22.2919               15.729       
       163.84761             22.3552               15.74        
       164.66685             22.4175               15.75        
       165.49018             22.4789               15.76        
       166.31763             22.5391               15.77        
       167.14922             22.5983               15.779       
       167.98497             22.6562               15.787       
       168.82489             22.7128               15.795       
       169.66902             22.7681               15.803       
       170.51736             22.8236               15.81        
       171.36995             22.8758               15.817       
        172.2268             22.9262               15.823       
       173.08793             22.9747               15.829       
       173.95337             23.0211               15.834       
       174.82314             23.0653               15.839       
       175.69726             23.1071               15.843       
       176.57574             23.1461               15.847       
       177.45862             23.1821               15.85        
       178.34591             23.2148               15.853       
       179.23764             23.2437               15.855       
       180.13383             23.2685               15.857       
        181.0345             23.2885               15.859       
       181.93967              23.303               15.86        
       182.84937             23.3113               15.86        
       183.76362             23.3123               15.86        
       184.68244             23.3048               15.86        
       185.60585             23.2869               15.859       
       186.53388             23.2566               15.858       
       187.46655             23.2107               15.856       
       188.40388             23.1449               15.853       
        189.3459             23.0531               15.851       
       190.29263             22.9251               15.847       
       191.24409             22.7442               15.844       
       192.20031              22.478               15.84        
       193.16131             22.0516               15.835       
       194.12712             21.2081               15.83        
       194.85647             18.9299               15.826       
       195.09776              18.486               20.045       
       195.14351             19.0163               20.037       
       196.07325             21.8997               19.876       
       197.05361             22.8823               19.713       
       198.03888             23.4754               19.555       
       199.02907             23.8829               19.403       
       200.02422             24.1682               19.256       
       201.02434             24.3518               19.114       
       202.02946             24.4274               18.977       
       203.03961             24.3464               18.844       
       204.05481             23.8847               18.715       
       204.62018             22.7717               18.646       
       204.97981             22.9072               21.463       
       205.07508             23.3293               21.441       
       206.10046              25.045               21.211       
       207.13096             25.8196               20.989       
       208.16661             26.3637               20.774       
       209.20745             26.7927               20.567       
       210.25348             27.1494               20.367       
       211.30475             27.4552               20.174       
       212.36128             27.7223               19.988       
       213.42308             27.9584               19.807       
        214.4902             28.1689               19.633       
       215.56265             28.3576               19.465       
       216.64046             28.5278               19.305       
       217.72366             28.6828               19.152       
       218.81228             28.8248               19.006       
       219.90634             28.9556               18.866       
       221.00588             29.0766               18.732       
        222.1109             29.1891               18.604       
       223.22146             29.2938               18.481       
       224.33757             29.3916               18.362       
       225.45925             29.4829               18.249       
       226.58655             29.5683               18.14        
       227.71948             29.6486               18.037       
       228.85808             29.7249               17.939       
       230.00237             29.7976               17.845       
       231.15238             29.8674               17.756       
       232.30814             29.9346               17.671       
       233.46969             29.9996               17.59        
       234.63703             30.0627               17.512       
       235.81022             30.1241               17.437       
       236.98927             30.1841               17.365       
       238.17422             30.2427               17.296       
       239.36509             30.3002               17.23        
       240.56191             30.3566               17.166       
       241.76472             30.4122               17.104       
       242.97355             30.4668               17.044       
       244.18841             30.5207               16.986       
       245.40936             30.5739               16.93        
        246.6364             30.6265               16.875       
       247.86959             30.6784               16.822       
       249.10893             30.7298               16.771       
       250.35448             30.7807               16.72        
       251.60625             30.8312               16.672       
       252.86428             30.8811               16.624       
        254.1286             30.9306               16.577       
       255.39925             30.9797               16.532       
       256.67624             31.0284               16.487       
       257.95962             31.0766               16.443       
       259.24942             31.1245               16.401       
       260.54567              31.172               16.359       
        261.8484             31.2192               16.317       
       263.15764             31.2659               16.277       
       264.47343             31.3123               16.237       
       265.79579             31.3583               16.198       
       267.12477              31.404               16.16        
        268.4604             31.4493               16.122       
        269.8027             31.4942               16.084       
       271.15171             31.5387               16.048       
       272.50747             31.5829               16.011       
       273.87001             31.6266               15.975       
       275.23936              31.67                15.94        
       276.61556              31.713               15.905       
       277.99863             31.7555               15.871       
       279.38863             31.7977               15.836       
       280.78557             31.8394               15.803       
        282.1895             31.8807               15.769       
       283.60044             31.9216               15.736       
       285.01845              31.962               15.704       
       286.44354              32.002               15.672       
       287.87576             32.0415               15.64        
       289.31514             32.0805               15.608       
       290.76171             32.1191               15.577       
       292.21552             32.1571               15.546       
        293.6766             32.1947               15.515       
       295.14498             32.2317               15.484       
       296.62071             32.2681               15.454       
       298.10381              32.304               15.424       
       299.59433             32.3394               15.395       
        301.0923             32.3741               15.365       
       302.59776             32.4082               15.336       
       304.11075             32.4417               15.307       
        305.6313             32.4746               15.279       
       307.15946             32.5067               15.251       
       308.69526             32.5382               15.222       
       310.23873             32.5689               15.195       
       311.78993             32.5988               15.167       
       313.34888              32.628               15.14        
       314.91562             32.6563               15.113       
        316.4902             32.6837               15.086       
       318.07265             32.7102               15.059       
       319.66301             32.7357               15.033       
       321.26133             32.7601               15.007       
       322.86764             32.7835               14.981       
       324.48197             32.8056               14.955       
       326.10438             32.8264               14.93        
       327.73491             32.8459               14.905       
       329.37358             32.8638               14.88        
       331.02045              32.88                14.855       
       332.67555             32.8944               14.831       
       334.33893             32.9068               14.806       
       336.01062             32.9169               14.783       
       337.69068             32.9243               14.759       
       339.37913             32.9288               14.735       
       341.07602             32.9298               14.712       
        342.7814             32.9266               14.689       
       344.49531             32.9185               14.666       
