# Nd
# Form Factors from Chantler Tables
# DOI: https://dx.doi.org/10.18434/T4HS32
# automatically retrived 2019-02-28 using URL https://physics.nist.gov/cgi-bin/ffast/ffast.pl

# For f_rel the second term, which is 3/5th of the Cromer-Liberman value, is used as suggested by Chantler.
# Real and imaginary part of the formfactors are: f'(E)=f1(E)+f_rel+f_NT and f''(E)=f2(E)
# see also original publication:  https://doi.org/10.1063/1.555974

# Z = 60
# f_rel = -0.5124 e/atom  (Relativistic correction estimate)
# f_NT = -0.013692 e/atom (Nuclear Thomson correction)


#        E (eV)            f1 (e/atom)          f2 (e/atom)     
         10.69                14.844              0.27095       
        11.42761             14.7192              0.30133       
        12.21612             14.5682              0.33573       
        13.05903              14.383              0.37466       
        13.9601              14.1508              0.41861       
        14.92335             13.8515              0.46815       
        15.95306             13.4503               0.5239       
        17.05382             12.8793              0.58645       
        18.23053             11.9837              0.65646       
        19.48844             10.2794              0.73456       
         20.678              5.53421              0.81122       
        20.83314             3.72966               0.8214       
        20.9945             -0.0960247            0.83203       
        21.0789              -7.02935             0.83761       
        21.2055              0.443496              14.593       
         21.522              7.05288               14.087       
        22.27063             12.1512               12.999       
        23.8073              16.2683               11.145       
        25.45001             18.2917               9.4814       
        27.20606             19.3604               8.0415       
        29.08327             19.8867               6.8589       
        31.09002             20.0933               5.9286       
        33.23523             20.1157               5.2254       
        35.52846             20.0381               4.7161       
         36.75               19.9757               4.5213       
        37.3125              19.9387               4.446        
        37.4625              19.9204               4.4273       
        37.6875              19.9195               4.4216       
        37.97993             19.9111               4.389        
         38.25               19.9006               4.3607       
        40.60054             19.7994               4.1768       
        43.40198             19.6963               4.0705       
        46.39671             19.6222               4.0486       
        49.59809             19.5881               4.0943       
        53.02035             19.6043               4.1942       
        56.67876             19.6841               4.3227       
        60.58959             19.7918               4.3219       
        64.77028             19.9005               4.3249       
        69.23942             19.9804               4.326        
        74.01695             20.0357               4.3208       
        79.12411             20.0504               4.3063       
        84.58368             19.9983               4.2801       
        90.41995             19.8321               4.2412       
        96.65893             19.4554               4.1888       
         100.0               20.9142               4.1569       
         100.5               20.8515               4.1519       
        101.0025             20.7848               4.1468       
       101.50751             20.7137               4.1416       
       102.01505             20.6377               4.1364       
       102.52513             20.5565               4.1311       
       103.03775             20.4695               4.1258       
       103.55294             20.3763               4.1203       
        104.0707             20.2762               4.1148       
       104.59106             20.1685               4.1092       
       105.11401             20.0523               4.1035       
       105.63958             19.9269               4.0978       
       106.16778             19.7909               4.0919       
       106.69862             19.6433               4.086        
       107.23211             19.4824               4.0801       
       107.76827             19.3065               4.074        
       108.30712             19.1135               4.0679       
       108.84865             18.9007               4.0617       
       109.39289             18.6649               4.0554       
       109.93986             18.4023               4.0491       
       110.48956             18.1078               4.0427       
       111.04201             17.7752               4.0362       
       111.59722             17.3961               4.0296       
        112.1552             16.9596               4.023        
       112.71598              16.451               4.0163       
       113.27956             15.8479               4.0096       
       113.84596             15.1193               4.0027       
       114.41519             14.2163               3.9958       
       114.98726             13.0569               3.9888       
        115.5622             11.4906               3.9818       
       116.14001             9.19412               3.9747       
       116.72071             5.25443               3.9675       
       117.30431             -5.79019              3.9602       
       117.48954             -31.9507              3.9579       
       117.51046             -31.8147              32.823       
       117.51048             -31.7939              32.823       
       117.89083             2.87043               31.525       
       118.48029             12.4334               29.635       
       119.07269             17.4057               27.872       
       119.66805             20.6974               26.23        
       120.26639             23.0793               24.699       
       120.86772             24.8815               23.273       
       121.47206             26.2796               21.943       
       122.07942             27.3799               20.703       
       122.68982              28.252               19.548       
       123.30327             28.9449               18.47        
       123.91979              29.494               17.466       
       124.53939              29.926               16.53        
       125.16208             30.2618               15.657       
       125.78789             30.5176               14.843       
       126.41683             30.7063               14.084       
       127.04892             30.8384               13.376       
       127.68416             30.9224               12.716       
       128.32258              30.965               12.101       
       128.96419             30.9715               11.527       
       129.60902             30.9458               10.992       
       130.25706              30.893               10.503       
       130.90835             30.8211               10.056       
       131.56289             30.7355               9.6484       
        132.2207             30.6403               9.2749       
       132.88181             30.5385               8.9324       
       133.54621             30.4323               8.618        
       134.21395             30.3234               8.3287       
       134.88502             30.2132               8.0624       
       135.55944             30.1027               7.8166       
       136.23724             29.9926               7.5896       
       136.91842             29.8837               7.3796       
       137.60302             29.7763               7.1851       
       138.29103             29.6708               7.0046       
       138.98249             29.5675               6.8369       
        139.6774             29.4665               6.6809       
       140.37579             29.3681               6.5356       
       141.07766             29.2722                6.4         
       141.78305              29.179               6.2735       
       142.49197             29.0884               6.1551       
       143.20443             29.0004               6.0443       
       143.92045             28.9151               5.9404       
       144.64005             28.8323               5.8429       
       145.36325              28.752               5.7512       
       146.09007             28.6742               5.665        
       146.82052             28.5987               5.5839       
       147.55462             28.5256               5.5073       
       148.29239             28.4547               5.4351       
       149.03386              28.386               5.3668       
       149.77903             28.3194               5.3022       
       150.52792             28.2548               5.2411       
       151.28056             28.1921               5.1831       
       152.03696             28.1313               5.1282       
       152.79715             28.0722               5.0759       
       153.56113             28.0149               5.0263       
       154.32894             27.9592               4.9791       
       155.10058              27.905               4.9342       
       155.87609             27.8523               4.8914       
       156.65547             27.8011               4.8505       
       157.43875             27.7512               4.8115       
       158.22594             27.7026               4.7743       
       159.01707             27.6552               4.7387       
       159.81215              27.609               4.7047       
       160.61121             27.5639               4.6721       
       161.41427             27.5199               4.6409       
       162.22134             27.4769               4.611        
       163.03245             27.4349               4.5824       
       163.84761             27.3938               4.5549       
       164.66685             27.3535               4.5285       
       165.49018             27.3141               4.5032       
       166.31763             27.2754               4.4789       
       167.14922             27.2375               4.4555       
       167.98497             27.2003               4.433        
       168.82489             27.1637               4.4114       
       169.66902             27.1277               4.3906       
       170.51736             27.0924               4.3706       
       171.36995             27.0575               4.3514       
        172.2268             27.0232               4.3329       
       173.08793             26.9893               4.3151       
       173.95337             26.9559               4.298        
       174.82314             26.9229               4.2815       
       175.69726             26.8903               4.2656       
       176.57574              26.858               4.2503       
       177.45862              26.826               4.2356       
       178.34591             26.7944               4.2215       
       179.23764             26.7629               4.2079       
       180.13383             26.7318               4.1948       
        181.0345             26.7008               4.1823       
       181.93967              26.67                4.1702       
       182.84937             26.6394               4.1587       
       183.76362             26.6088               4.1476       
       184.68244             26.5784               4.1369       
       185.60585             26.5481               4.1268       
       186.53388             26.5178               4.117        
       187.46655             26.4875               4.1077       
       188.40388             26.4572               4.0988       
        189.3459             26.4268               4.0903       
       190.29263             26.3964               4.0823       
       191.24409             26.3659               4.0746       
       192.20031             26.3352               4.0673       
       193.16131             26.3044               4.0605       
       194.12712             26.2733               4.054        
       195.09776             26.2421               4.0479       
       196.07325             26.2105               4.0421       
       197.05361             26.1786               4.0368       
       198.03888             26.1463               4.0318       
       199.02907             26.1137               4.0271       
       200.02422             26.0805               4.0229       
       201.02434             26.0468               4.0189       
       202.02946             26.0125               4.0154       
       203.03961             25.9776               4.0122       
       204.05481             25.9418               4.0093       
       205.07508             25.9052               4.0068       
       206.10046             25.8677               4.0047       
       207.13096              25.829               4.0029       
       208.16661             25.7891               4.0014       
       209.20745             25.7478               4.0003       
       210.25348             25.7048               3.9995       
       211.30475             25.6598               3.9991       
       212.36128             25.6127               3.999        
       213.42308             25.5629               3.9992       
        214.4902             25.5098               3.9998       
       215.56265             25.4528               4.0008       
       216.64046             25.3908               4.002        
       217.72366             25.3224               4.0036       
       218.81228             25.2454               4.0056       
       219.90634             25.1562               4.0079       
       221.00588             25.0481               4.0105       
        222.1109             24.9074               4.0134       
       223.22146             24.6945               4.0167       
       224.33757             24.1391               4.0204       
       224.47692              23.894               4.0208       
       224.72308             23.8879               5.025        
       225.45925             24.4907               5.0302       
       226.58655             24.7326               5.0384       
       227.71948             24.8514               5.047        
       228.85808             24.9255               5.056        
       230.00237             24.9759               5.0653       
       231.15238             25.0114               5.0749       
       232.30814             25.0365               5.085        
       233.46969             25.0536               5.0953       
       234.63703              25.064               5.106        
       235.81022             25.0685               5.1171       
       236.98927             25.0671               5.1285       
       238.17422             25.0592               5.1402       
       239.36509             25.0433               5.1523       
       240.56191             25.0153               5.1648       
       241.76472              24.963               5.1776       
       242.97355             24.8079               5.1907       
       243.15743             24.7223               5.1927       
       243.44258             24.7234               5.5238       
       244.18841             24.9173               5.533        
       245.40936             25.0122               5.5484       
        246.6364             25.0643               5.5641       
       247.86959             25.1008               5.5801       
       249.10893             25.1292               5.5964       
       250.35448             25.1523               5.6131       
       251.60625             25.1719               5.6301       
       252.86428             25.1888               5.6474       
        254.1286             25.2036               5.665        
       255.39925             25.2168               5.6829       
       256.67624             25.2287               5.7011       
       257.95962             25.2394               5.7196       
       259.24942             25.2493               5.7384       
       260.54567             25.2583               5.7575       
        261.8484             25.2666               5.7769       
       263.15764             25.2744               5.7966       
       264.47343             25.2816               5.8165       
       265.79579             25.2883               5.8368       
       267.12477             25.2947               5.8573       
        268.4604             25.3006               5.8781       
        269.8027             25.3063               5.8992       
       271.15171             25.3116               5.9205       
       272.50747             25.3167               5.9421       
       273.87001             25.3215               5.9639       
       275.23936              25.326               5.986        
       276.61556             25.3304               6.0084       
       277.99863             25.3345               6.031        
       279.38863             25.3384               6.0538       
       280.78557              25.342               6.0768       
        282.1895             25.3454               6.1001       
       283.60044             25.3486               6.1236       
       285.01845             25.3516               6.1473       
       286.44354             25.3542               6.1712       
       287.87576             25.3565               6.1953       
       289.31514             25.3585               6.2196       
       290.76171             25.3601               6.2441       
       292.21552             25.3612               6.2688       
        293.6766             25.3618               6.2937       
       295.14498             25.3618               6.3187       
       296.62071              25.361               6.3439       
       298.10381             25.3593               6.3692       
       299.59433             25.3565               6.3947       
        301.0923             25.3522               6.4204       
       302.59776             25.3463               6.4461       
       304.11075             25.3381               6.472        
        305.6313             25.3268               6.498        
       307.15946             25.3114               6.5242       
       308.69526              25.29                6.5504       
       310.23873              25.259               6.5767       
       311.78993             25.2109               6.6031       
       313.34888             25.1239               6.6296       
       314.91562             24.8279               6.6562       
        315.5152             24.8503               7.1864       
        316.4902             25.0924               7.2036       
       318.07265             25.2399               7.2314       
       319.66301             25.3283               7.2592       
       321.26133             25.3949               7.2871       
       322.86764             25.4502               7.315        
       324.48197             25.4986               7.3429       
       326.10438             25.5425               7.3709       
       327.73491             25.5832               7.3988       
       329.37358             25.6215               7.4268       
       331.02045              25.658               7.4547       
       332.67555             25.6932               7.4826       
       334.33893             25.7274               7.5105       
       336.01062             25.7607               7.5384       
       337.69068             25.7934               7.5662       
