# Os
# Form Factors from Chantler Tables
# DOI: https://dx.doi.org/10.18434/T4HS32
# automatically retrived 2019-02-28 using URL https://physics.nist.gov/cgi-bin/ffast/ffast.pl

# For f_rel the second term, which is 3/5th of the Cromer-Liberman value, is used as suggested by Chantler.
# Real and imaginary part of the formfactors are: f'(E)=f1(E)+f_rel+f_NT and f''(E)=f2(E)
# see also original publication:  https://doi.org/10.1063/1.555974

# Z = 76
# f_rel = -0.9192 e/atom  (Relativistic correction estimate)
# f_NT = -0.016659 e/atom (Nuclear Thomson correction)


#        E (eV)            f1 (e/atom)          f2 (e/atom)     
        5.907383             5.43687                0.0         
        5.997802             5.15071                0.0         
        6.021914             4.85715                0.0         
        6.058082             5.12209              0.54897       
        6.148501             5.31598              0.54399       
        6.911593             4.82996              0.51397       
        7.017383             4.35271               0.5158       
        7.045593             3.81101              0.51659       
        7.087909             4.34862               1.566        
        7.193699             4.79431               1.5545       
         10.69               4.06001               2.8563       
        11.42761              3.8303               3.4898       
        12.21612             3.67817               4.2589       
        13.05903             3.64823               5.1556       
        13.9601              3.78702               6.1562       
        14.92335             4.13658               7.2192       
        15.95306             4.72647               8.2856       
        17.05382             5.56591               9.2837       
        18.23053             6.66196               10.137       
        19.48844              7.9237               10.778       
        20.83314             9.30795               11.152       
        22.27063              10.773               11.234       
        23.8073              12.1547               11.025       
        25.45001             13.4151               10.553       
        27.20606             14.4901               9.8659       
        29.08327             15.3372               9.0253       
        31.09002             15.9315               8.0922       
        33.23523             16.2636               7.1306       
        35.52846             16.3346               6.1929       
        37.97993             16.1358               5.316        
        40.60054             15.6027               4.5225       
        43.40198              14.375               3.8227       
         44.492              13.2731               3.587        
         45.173              11.3899               3.449        
         45.374              8.51787               3.4096       
         45.627              11.3463               7.4612       
        46.0685              12.5223               7.2925       
        46.2537              12.4059               7.2233       
         46.308              11.9946               8.0959       
        46.39671             12.8348               8.0585       
        46.5315              13.2592               8.0023       
         47.226              14.2971               7.721        
        49.59809             15.5895               6.8584       
        53.02035             15.9956               5.8309       
        56.67876             15.3856               4.9842       
         56.84               15.3069               4.952        
         57.71               14.4436               4.7851       
         57.942              13.4254               4.7425       
         58.29               14.4565               6.6712       
         59.16               15.3382               6.5044       
        60.58959             15.8224               6.2525       
        64.77028             16.2596               5.6534       
        69.23942             16.3067               5.1344       
        74.01695             16.1153               4.6965       
        79.12411             15.7335               4.3797       
         82.026              15.4516               4.2706       
        83.2815               15.298               4.2389       
        83.6163              15.2257               4.232        
        84.1185              15.2156               4.3005       
        84.58368             15.1878               4.2938       
         85.374              15.1242               4.2852       
        90.41995             14.6327               4.3116       
        96.65893             13.9803               4.5235       
        103.3284             13.2929               4.9436       
        110.4581             12.6108               5.5827       
        118.0797             11.9764               6.4502       
        126.2272             11.4366               7.5436       
        134.9368             11.0393               8.8536       
        144.2475             10.8266               10.362       
        154.2005             10.8645               12.028       
        164.8404             11.1817               13.805       
        176.2144             11.8116               15.635       
        188.3732             12.7716               17.455       
        201.3709             14.0558               19.145       
        215.2655             15.5949               20.628       
        230.1188              17.31                21.867       
        245.997              19.1095               22.842       
        262.9708             20.8401               23.542       
        267.344              21.1921               23.659       
        271.436               21.326               23.751       
        272.5272             21.0971               23.772       
        274.164              21.5895               24.465       
        278.256              22.2684               24.553       
        281.1158             22.6139               24.606       
        283.612              22.8744               24.646       
        287.953              23.1714               24.704       
        289.1106             23.0454               24.717       
        290.847               23.497               25.243       
        295.188              24.1977               25.291       
        300.5128             24.8701               25.334       
        321.2482             27.0645               25.351       
        343.4143              29.026               25.183       
        367.1099             30.8046               24.87        
        392.4405             32.3961               24.446       
        419.5189             33.7687               23.94        
        448.4657              34.775               23.377       
        458.836              34.8718               23.174       
        465.859              34.4856               23.037       
        467.7318             33.7681                23.0        
        470.541              34.6743               24.498       
        477.564              35.6373               24.371       
        479.4098             35.7982               24.338       
         500.0               38.4805               23.97        
         502.5               38.6059               23.926       
        505.0125             38.7279               23.881       
       507.53756             38.8468               23.837       
       510.07525             38.9629               23.792       
       512.62563             39.0762               23.747       
       515.18875             39.1868               23.702       
        517.7647             39.2949               23.658       
       520.35352             39.4002               23.612       
       522.95529             39.5028               23.567       
       525.57007             39.6023               23.522       
       528.19792             39.6985               23.476       
       530.83891             39.7909               23.431       
        533.4931             39.8784               23.385       
       536.16057             39.9595               23.339       
       538.84137             40.0312               23.293       
       541.53558              40.086               23.247       
       544.24325             40.0981                23.2        
       545.71853             40.0302               23.175       
       546.96447              40.016               23.52        
       547.28152             40.0883               23.514       
       549.69929             40.3421               23.475       
       552.44779             40.5153               23.43        
       555.21003             40.6601               23.385       
       557.98608              40.792               23.34        
       560.77601             40.9163               23.295       
       563.57989             41.0353               23.249       
       566.39779             41.1504               23.204       
       569.22978             41.2625               23.158       
       572.07593              41.372               23.112       
        574.9363             41.4793               23.066       
       577.81099             41.5847               23.02        
       580.70004             41.6883               22.974       
       583.60354             41.7903               22.928       
       586.52156             41.8908               22.881       
       589.45417             41.9898               22.835       
       592.40144             42.0874               22.788       
       595.36345             42.1836               22.741       
       598.34026             42.2784               22.694       
       601.33196             42.3719               22.647       
       604.33862              42.464                22.6        
       607.36032             42.5547               22.553       
       610.39712             42.6439               22.505       
        613.4491             42.7315               22.458       
       616.51635             42.8174               22.41        
       619.59893             42.9014               22.362       
       622.69693             42.9834               22.314       
       625.81041              43.063               22.266       
       628.93946             43.1398               22.218       
       632.08416             43.2133               22.169       
       635.24458             43.2827               22.121       
        638.4208             43.3465               22.072       
       641.61291             43.4026               22.023       
       644.82097             43.4467               21.974       
       648.04508              43.469               21.925       
        651.2853             43.4371               21.876       
       653.27272             43.3097               21.846       
       654.54173             43.0989               22.362       
       655.32723             43.3672               22.35        
       657.81444              43.646               22.313       
       661.10351             43.8496               22.264       
       664.40903             44.0079               22.215       
       667.73107             44.1467               22.166       
       671.06973             44.2746               22.117       
       674.42508             44.3953               22.068       
        677.7972              44.511               22.018       
       681.18619             44.6228               21.969       
       684.59212             44.7317               21.919       
       688.01508              44.838               21.869       
       691.45515             44.9424               21.819       
       694.91243             45.0449               21.769       
       698.38699             45.1459               21.719       
       701.87893             45.2455               21.669       
       705.38832              45.344               21.618       
       708.91526             45.4413               21.568       
       712.45984             45.5376               21.517       
       716.02214             45.6329               21.466       
       719.60225             45.7275               21.415       
       723.20026             45.8212               21.364       
       726.81626             45.9141               21.313       
       730.45034             46.0064               21.261       
        734.1026              46.098               21.21        
       737.77311             46.1889               21.158       
       741.46197             46.2792               21.106       
       745.16928              46.369               21.054       
       748.89513             46.4581               21.002       
       752.63961             46.5467               20.95        
        756.4028             46.6348               20.898       
       760.18482             46.7224               20.845       
       763.98574             46.8095               20.792       
       767.80567             46.8961               20.74        
        771.6447             46.9823               20.687       
       775.50292             47.0681               20.634       
       779.38044             47.1535               20.581       
       783.27734             47.2384               20.527       
       787.19373             47.3231               20.474       
       791.12969             47.4074               20.42        
       795.08534             47.4912               20.366       
       799.06077             47.5745               20.311       
       803.05607             47.6574               20.256       
       807.07135             47.7398               20.201       
       811.10671             47.8217               20.146       
       815.16224             47.9032               20.091       
       819.23806             48.0002               20.035       
       823.33425             48.0811               19.98        
       827.45092             48.1617               19.924       
       831.58817             48.2418               19.868       
       835.74611             48.3216               19.812       
       839.92484             48.4011               19.756       
       844.12447             48.4802                19.7        
       848.34509             48.5591               19.644       
       852.58682             48.6376               19.588       
       856.84975             48.7158               19.532       
        861.134              48.7938               19.475       
       865.43967             48.8715               19.418       
       869.76687              48.958               19.36        
        874.1157             49.0356               19.284       
       878.48628             49.1121               19.209       
       882.87871             49.1876               19.133       
        887.2931              49.262               19.058       
       891.72957             49.3355               18.982       
       896.18822             49.4081               18.907       
       900.66916             49.4797               18.831       
        905.1725             49.5505               18.756       
       909.69837             49.6204               18.681       
       914.24686             49.6895               18.606       
       918.81809             49.7578               18.531       
       923.41218             49.8253               18.456       
       928.02924             49.8921               18.381       
       932.66939             49.9581               18.307       
       937.33274             50.0233               18.232       
        942.0194             50.0879               18.157       
        946.7295             50.1518               18.083       
       951.46315             50.2151               18.008       
       956.22046             50.2779               17.934       
       961.00156             50.3401               17.86        
       965.80657             50.4019               17.787       
        970.6356             50.4632               17.713       
       975.48878             50.5242               17.64        
       980.36623              50.585               17.566       
       985.26806             50.6457               17.493       
        990.1944             50.7064               17.421       
       995.14537             50.7674               17.348       
       1000.1211             50.8291               17.275       
       1005.1217             50.8794               17.18        
       1010.1473             50.9231               17.084       
        1015.198             50.9648               16.99        
        1020.274             51.0051               16.896       
       1025.3754             51.0441               16.803       
       1030.5023             51.0818               16.71        
       1035.6548             51.1182               16.618       
       1040.8331             51.1535               16.526       
       1046.0372             51.1875               16.435       
       1051.2674             51.2205               16.345       
       1056.5238             51.2523               16.255       
       1061.8064              51.283               16.166       
       1067.1154             51.3127               16.078       
        1072.451             51.3414               15.99        
       1077.8132             51.3692               15.903       
       1083.2023             51.3959               15.816       
       1088.6183             51.4218               15.731       
       1094.0614             51.4468               15.64        
       1099.5317             51.4702               15.544       
       1105.0294             51.4919               15.45        
       1110.5545              51.512               15.356       
       1116.1073             51.5306               15.262       
       1121.6878             51.5475               15.17        
       1127.2963              51.563               15.078       
       1132.9328              51.577               14.987       
       1138.5974             51.5897               14.896       
       1144.2904             51.6009               14.807       
       1150.0119             51.6108               14.718       
       1155.7619             51.6194               14.63        
       1161.5407             51.6267               14.538       
       1167.3484             51.6322               14.444       
       1173.1852             51.6359               14.352       
       1179.0511              51.638               14.26        
       1184.9464             51.6384               14.169       
       1190.8711             51.6372               14.079       
       1196.8254             51.6344               13.989       
       1202.8096              51.63                 13.9        
       1208.8236              51.624               13.812       
       1214.8677             51.6166               13.725       
       1220.9421             51.6076               13.639       
       1227.0468             51.5971               13.553       
        1233.182             51.5851               13.468       
       1239.3479             51.5716               13.384       
       1245.5447             51.5566                13.3        
       1251.7724             51.5402               13.217       
       1258.0312             51.5223               13.135       
       1264.3214              51.503               13.053       
        1270.643             51.4822               12.972       
       1276.9962             51.4599               12.892       
       1283.3812             51.4362               12.813       
       1289.7981              51.411               12.734       
