# Pb
# Form Factors from Chantler Tables
# DOI: https://dx.doi.org/10.18434/T4HS32
# automatically retrived 2019-02-27 using URL https://physics.nist.gov/cgi-bin/ffast/ffast.pl
#
# Z = 82
# f_rel = -1.9001 e/atom  (Relativistic correction estimate)
# f_NT = -0.017802 e/atom (Nuclear Thomson correction)


#        E (eV)            f1 (e/atom)          f2 (e/atom)     
        4.81343              3.38841                0.0         
        4.887105             2.16509                0.0         
        4.906751             0.708129               0.0         
        4.936221             2.21405               2.8636       
        5.009896             3.52849               2.8173       
         10.69               6.12159               1.3573       
        11.42761             5.67907               1.2692       
        11.45657             5.64148               1.2659       
        11.63193             5.19902               1.2463       
        11.67869             4.68408               1.2411       
        11.74883             5.21287               2.2376       
        11.92419              5.6605               2.1885       
        12.21612             5.90044               2.1105       
        13.05903             6.07869               1.9076       
        13.9601              6.02655               1.7018       
        14.92335              5.8149               1.4986       
        15.95306             5.45014               1.3107       
        17.05382              4.897                1.1436       
        18.23053             4.02014              0.99837       
         18.816              3.29032              0.93683       
         19.104              2.51533               0.9088       
        19.1808              1.79146              0.90157       
         19.296              2.34505               2.1978       
        19.48844             2.64261               2.227        
         19.584              2.68664               2.2421       
        20.83314             2.28932               2.4791       
         21.364              1.86513               2.6027       
         21.691              1.37937               2.6896       
        21.7782              0.980532              2.7143       
         21.909              1.22209               3.4302       
         22.236              1.30011               3.5893       
        22.27063              1.2942               3.6069       
        23.8073              0.654426              4.5357       
        25.45001             -0.14613              5.8566       
        27.20606            -0.849767              7.6272       
        29.08327             -1.26341              9.858        
        31.09002             -1.1852               12.488       
        33.23523            -0.430245              15.367       
        35.52846              1.1244               18.258       
        37.97993             3.49835               20.87        
        40.60054              6.584                22.914       
        43.40198              10.158               24.161       
        46.39671             13.9223               24.492       
        49.59809             17.5636               23.914       
        53.02035             20.8108               22.553       
        56.67876             23.4749               20.61        
        60.58959             25.4864               18.316       
        64.77028              26.79                15.89        
        69.23942             27.4834               13.511       
        74.01695              27.598               11.304       
        79.12411             27.1926               9.3444       
         84.28               26.0022               7.7509       
        84.58368             25.8519               7.6677       
         85.57               24.9747               7.4054       
         85.914              23.8305               7.3165       
         86.43               24.9774               9.3836       
         87.72               25.8943               8.9716       
        90.41995             26.3161               8.1838       
        96.65893             26.0953               6.6942       
        102.704              25.1822               5.616        
        103.3284             24.9953               5.5211       
        104.276              24.5098               5.382        
        104.6952             23.8244               5.3224       
        105.324              24.4499               6.514        
        106.896              24.9052               6.2743       
        110.4581             25.0147               5.7855       
        118.0797             24.6519               4.9423       
        126.2272             24.0125               4.2469       
        134.9368             23.0915               3.6741       
        135.338              23.0368               3.6512       
        137.4095             22.6752               3.5374       
        137.9619             22.4527               3.5082       
        138.7905             22.5043               3.778        
        140.042              22.4463               3.7306       
        140.862              22.3694               3.7011       
        142.1855             22.1897               3.6561       
        142.7571             22.0244               3.6377       
        143.6145             22.0538               3.8378       
        144.2475             22.0363               3.8247       
        144.354               22.031               3.8226       
        145.758              21.9311               3.7968       
        146.5635             21.8494               3.7837       
        147.1527             21.7475               3.775        
        148.0365             21.7399               3.8797       
        150.246              21.6148               3.8586       
        154.2005              21.311               3.844        
        164.8404             20.3907               3.9496       
        176.2144             19.3663               4.2868       
        188.3732             18.2872               4.8926       
        201.3709             17.2039               5.805        
        215.2655             16.1834               7.0547       
        230.1188             15.3101               8.6547       
        245.997              14.6794               10.591       
        262.9708             14.3928               12.815       
        281.1158             14.5214               15.243       
        300.5128             15.1233               17.763       
        321.2482             16.2088               20.243       
        343.4143             17.7399               22.547       
        367.1099             19.6145               24.557       
        392.4405             21.6247               26.183       
        404.642              22.4077               26.778       
        410.8355             22.5013               27.036       
        412.4871             22.1556               27.101       
        414.9645             22.7816               28.126       
        419.5189              23.458               28.328       
        421.158              23.6418               28.398       
        426.496              24.1533               28.613       
        433.024               24.544               28.852       
        434.7648             24.3947               28.912       
        437.376              24.9579               29.63        
        443.904              25.8547               29.868       
        448.4657             26.3693               30.021       
        479.4098             29.4526               30.808       
         500.0               32.9286               31.09        
         502.5               33.1489               31.112       
        505.0125             33.3686               31.131       
       507.53756             33.5874               31.149       
       510.07525             33.8055               31.163       
       512.62563             34.0228               31.176       
       515.18875             34.2391               31.186       
        517.7647             34.4546               31.194       
       520.35352             34.6691                31.2        
       522.95529             34.8826               31.204       
       525.57007             35.0951               31.205       
       528.19792             35.3065               31.204       
       530.83891             35.5167               31.201       
        533.4931             35.7259               31.196       
       536.16057             35.9338               31.189       
       538.84137             36.1404               31.18        
       541.53558             36.3457               31.169       
       544.24325             36.5497               31.155       
       546.96447             36.7523               31.14        
       549.69929             36.9535               31.123       
       552.44779             37.1531               31.104       
       555.21003             37.3512               31.083       
       557.98608             37.5477               31.059       
       560.77601             37.7424               31.034       
       563.57989             37.9353               31.007       
       566.39779             38.1263               30.978       
       569.22978             38.3153               30.946       
       572.07593             38.5022               30.913       
        574.9363             38.6869               30.878       
       577.81099             38.8693               30.842       
       580.70004             39.0492               30.803       
       583.60354             39.2264               30.762       
       586.52156             39.4008               30.72        
       589.45417             39.5721               30.675       
       592.40144             39.7403               30.63        
       595.36345             39.9049               30.582       
       598.34026             40.0658               30.533       
       601.33196             40.2226               30.482       
       604.33862             40.3748               30.43        
       607.36032              40.522               30.377       
       610.39712             40.6634               30.322       
        613.4491             40.7984               30.266       
       616.51635             40.9259               30.208       
       619.59893             41.0443               30.149       
       622.69693             41.1517               30.09        
       625.81041             41.2451               30.029       
       628.93946             41.3198               29.966       
       632.08416             41.3679               29.903       
       635.24458             41.3747               29.839       
        638.4208             41.3056               29.774       
       641.61291              41.045               29.708       
       643.72017             40.3933               29.665       
       644.82097             39.9332               31.478       
       645.27986             40.4764               31.469       
       648.04508              41.508               31.413       
        651.2853              42.058               31.348       
       654.54173             42.4568               31.282       
       657.81444             42.7904               31.215       
       661.10351              43.087               31.148       
       664.40903             43.3597               31.08        
       667.73107             43.6154               31.012       
       671.06973             43.8584               30.943       
       674.42508             44.0915               30.874       
        677.7972             44.3166               30.804       
       681.18619             44.5352               30.735       
       684.59212             44.7484               30.665       
       688.01508             44.9569               30.594       
       691.45515             45.1617               30.524       
       694.91243             45.3633               30.454       
       698.38699             45.5622               30.381       
       701.87893             45.7561               30.296       
       705.38832             45.9457               30.211       
       708.91526             46.1312               30.126       
       712.45984              46.313               30.04        
       716.02214             46.4911               29.954       
       719.60225             46.6657               29.867       
       723.20026              46.837               29.78        
       726.81626             47.0048               29.693       
       730.45034             47.1693               29.606       
        734.1026             47.3304               29.518       
       737.77311              47.487               29.425       
       741.46197             47.6378               29.329       
       745.16928              47.782               29.232       
       748.89513             47.9182               29.135       
       752.63961             48.0434               29.037       
        756.4028             48.1506               28.939       
       760.18482             48.2177               28.841       
       762.83052             48.1669               28.772       
       763.98574             47.8935               29.14        
       764.96944             48.2518               29.115       
       767.80567             48.5275               29.043       
        771.6447             48.7632               28.946       
       775.50292             48.9616               28.849       
       779.38044             49.1433               28.751       
       783.27734              49.315               28.654       
       787.19373             49.4796               28.556       
       791.12969             49.6387               28.458       
       795.08534             49.7933               28.36        
       799.06077             49.9439               28.263       
       803.05607             50.0911               28.165       
       807.07135             50.2351               28.067       
       811.10671             50.3762               27.969       
       815.16224             50.5144               27.871       
       819.23806              50.65                27.773       
       823.33425             50.7829               27.675       
       827.45092             50.9134               27.577       
       831.58817             51.0413               27.48        
       835.74611             51.1667               27.382       
       839.92484             51.2896               27.285       
       844.12447             51.4098               27.188       
       848.34509             51.5272               27.091       
       852.58682             51.6417               26.994       
       856.84975             51.7529               26.898       
        861.134              51.8605               26.801       
       865.43967             51.9637               26.705       
       869.76687             52.0616               26.61        
        874.1157             52.1525               26.514       
       878.48628             52.2333               26.419       
       882.87871             52.2978               26.324       
        887.2931             52.3291               26.229       
       891.72957             52.2414               26.135       
       892.30427             52.1938               26.123       
       894.89571             52.2641               26.61        
       896.18822             52.4183               26.583       
       900.66916             52.7122               26.49        
        905.1725             52.9177               26.398       
       909.69837             53.0949               26.306       
       914.24686             53.2579               26.214       
       918.81809             53.4124               26.123       
       923.41218             53.5613               26.032       
       928.02924             53.7064               25.942       
       932.66939             53.8488               25.852       
       937.33274             53.9892               25.762       
        942.0194             54.1285               25.673       
        946.7295              54.267               25.585       
       951.46315             54.4053               25.497       
       956.22046             54.5439               25.409       
       961.00156             54.6831               25.322       
       965.80657             54.8235               25.236       
        970.6356             54.9656               25.15        
       975.48878             55.1099               25.065       
       980.36623             55.2571               24.98        
       985.26806             55.4081               24.895       
        990.1944             55.5638               24.812       
       995.14537             55.7256               24.728       
       1000.1211             55.8951               24.644       
       1005.1217             56.0068               24.499       
       1010.1473             56.1129               24.356       
        1015.198             56.2144               24.213       
        1020.274             56.3117               24.072       
       1025.3754             56.4053               23.932       
       1030.5023             56.4957               23.793       
       1035.6548              56.583               23.655       
       1040.8331             56.6674               23.518       
       1046.0372             56.7493               23.383       
       1051.2674             56.8287               23.248       
       1056.5238             56.9058               23.114       
       1061.8064             56.9807               22.982       
       1067.1154             57.0536               22.851       
        1072.451             57.1244               22.72        
       1077.8132             57.1934               22.591       
       1083.2023             57.2607               22.463       
       1088.6183             57.3263               22.336       
       1094.0614             57.3899               22.208       
       1099.5317             57.4517               22.08        
       1105.0294             57.5116               21.954       
       1110.5545             57.5698               21.829       
       1116.1073             57.6263               21.704       
       1121.6878             57.6812               21.581       
       1127.2963             57.7344               21.459       
       1132.9328             57.7862               21.338       
       1138.5974             57.8364               21.217       
       1144.2904             57.8852               21.098       
       1150.0119             57.9326               20.979       
       1155.7619             57.9787               20.862       
       1161.5407             58.0234               20.745       
       1167.3484             58.0667               20.629       
       1173.1852             58.1089               20.514       
       1179.0511             58.1497                20.4        
       1184.9464             58.1894               20.287       
       1190.8711             58.2279               20.175       
       1196.8254             58.2652               20.064       
       1202.8096             58.3014               19.953       
       1208.8236             58.3364               19.844       
       1214.8677             58.3704               19.735       
       1220.9421             58.4033               19.627       
       1227.0468             58.4352               19.52        
        1233.182              58.466               19.414       
