# Pm
# Form Factors from Chantler Tables
# DOI: https://dx.doi.org/10.18434/T4HS32
# automatically retrived 2019-02-28 using URL https://physics.nist.gov/cgi-bin/ffast/ffast.pl

# For f_rel the second term, which is 3/5th of the Cromer-Liberman value, is used as suggested by Chantler.
# Real and imaginary part of the formfactors are: f'(E)=f1(E)+f_rel+f_NT and f''(E)=f2(E)
# see also original publication:  https://doi.org/10.1063/1.555974

# Z = 61
# f_rel = -0.5334 e/atom  (Relativistic correction estimate)
# f_NT = -0.014078 e/atom (Nuclear Thomson correction)


#        E (eV)            f1 (e/atom)          f2 (e/atom)     
         10.69               12.5974              0.24241       
        11.42761             12.4613              0.27242       
        12.21612             12.3126              0.30634       
        13.05903             12.1106              0.34476       
        13.9601              11.8573              0.38832       
        14.92335             11.5312              0.43773       
        15.95306             11.0943              0.49378       
        17.05382             10.4739              0.55717       
        18.23053             9.50254              0.62855       
        19.48844             7.65798              0.70875       
         20.678              2.52909              0.78801       
        20.83314             0.578709             0.79858       
        20.9945              -3.55699             0.80963       
        21.0789              -11.0546             0.81543       
        21.2055              -2.96724              15.691       
         21.522              4.18486               15.134       
        22.27063             9.69595               13.936       
        23.8073              14.1247               11.898       
        25.45001             16.2788               10.082       
        27.20606             17.3987               8.5183       
        29.08327             17.9337               7.2406       
        31.09002              18.125               6.2405       
        33.23523             18.1188               5.4887       
        35.52846             18.0053               4.9481       
         36.75                17.923               4.743        
        37.3125              17.8768               4.6642       
        37.4625              17.8559               4.6447       
        37.6875              17.8515               4.6381       
        37.97993             17.8383               4.6041       
         38.25               17.8235               4.5747       
        40.60054             17.6842               4.3856       
        43.40198             17.5358               4.282        
        46.39671              17.412                4.27        
        49.59809             17.3214               4.3313       
        53.02035             17.2687               4.4514       
        56.67876             17.2569               4.6186       
        60.58959             17.2887               4.8239       
        64.77028             17.3807               5.0598       
        69.23942              17.51                5.3207       
        74.01695              17.699               5.6013       
        79.12411             17.9251               5.6952       
        84.58368             18.0861               5.715        
        90.41995             18.1521               5.7131       
        96.65893             18.0626               5.688        
         100.0               21.0426               5.6661       
         100.5                21.013               5.6624       
        101.0025             20.9808               5.6585       
       101.50751             20.9459               5.6545       
       102.01505             20.9081               5.6503       
       102.52513             20.8671               5.6461       
       103.03775             20.8226               5.6417       
       103.55294             20.7745               5.6371       
        104.0707             20.7223               5.6324       
       104.59106             20.6659               5.6276       
       105.11401             20.6047               5.6227       
       105.63958             20.5384               5.6176       
       106.16778             20.4664               5.6124       
       106.69862             20.3882               5.6071       
       107.23211             20.3033               5.6016       
       107.76827             20.2107               5.596        
       108.30712             20.1098               5.5903       
       108.84865             19.9996               5.5844       
       109.39289             19.8788               5.5784       
       109.93986             19.7461               5.5723       
       110.48956               19.6                5.5661       
       111.04201             19.4386               5.5597       
       111.59722             19.2594               5.5532       
        112.1552             19.0597               5.5465       
       112.71598             18.8364               5.5398       
       113.27956              18.584               5.5329       
       113.84596             18.2973               5.5259       
       114.41519             17.9689               5.5187       
       114.98726             17.5888               5.5114       
        115.5622             17.1433               5.5041       
       116.14001              16.613               5.4965       
       116.72071              15.969               5.4889       
       117.30431             15.1662               5.4811       
       117.89083             14.1287               5.4732       
       118.48029             12.7149               5.4652       
       119.07269             10.6144               5.4571       
       119.66805             6.90986               5.4488       
       120.26639             -5.15134              5.4405       
       120.38579             -22.5841              5.4388       
        120.4142             -22.4362              30.45        
       120.86772             6.71061               29.192       
       121.47206             14.2183               27.62        
       122.07942             18.3192               26.151       
       122.68982             21.0848               24.777       
       123.30327             23.1102               23.493       
       123.91979              24.658               22.293       
       124.53939              25.87                21.172       
       125.16208             26.8329               20.123       
       125.78789             27.6041               19.143       
       126.41683             28.2237               18.226       
       127.04892             28.7212               17.369       
       127.68416             29.1188               16.568       
       128.32258             29.4339               15.818       
       128.96419              29.68                15.118       
       129.60902              29.868               14.462       
       130.25706             30.0066               13.849       
       130.90835             30.1029               13.276       
       131.56289             30.1627               12.739       
        132.2207             30.1903               12.237       
       132.88181             30.1888               11.769       
       133.54621             30.1633               11.339       
       134.21395             30.1206               10.946       
       134.88502             30.0653               10.586       
       135.55944             30.0009               10.255       
       136.23724             29.9301               9.9501       
       136.91842             29.8548               9.6696       
       137.60302             29.7764               9.4107       
       138.29103             29.6963               9.1715       
       138.98249             29.6153                8.95        
        139.6774             29.5341               8.7448       
       140.37579             29.4533               8.5542       
       141.07766             29.3734               8.377        
       141.78305             29.2947               8.2121       
       142.49197             29.2175               8.0583       
       143.20443             29.1419               7.9147       
       143.92045             29.0681               7.7804       
       144.64005             28.9962               7.6547       
       145.36325             28.9262               7.5368       
       146.09007             28.8582               7.4261       
       146.82052             28.7923               7.3221       
       147.55462             28.7283               7.2242       
       148.29239             28.6663               7.1319       
       149.03386             28.6063               7.0448       
       149.77903             28.5482               6.9625       
       150.52792              28.492               6.8846       
       151.28056             28.4376               6.8109       
       152.03696             28.3849               6.7409       
       152.79715              28.334               6.6745       
       153.56113             28.2847               6.6114       
       154.32894              28.237               6.5514       
       155.10058             28.1909               6.4942       
       155.87609             28.1462               6.4397       
       156.65547             28.1029               6.3876       
       157.43875              28.061               6.3379       
       158.22594             28.0204               6.2903       
       159.01707              27.981               6.2447       
       159.81215             27.9428               6.2011       
       160.61121             27.9057               6.1592       
       161.41427             27.8697               6.119        
       162.22134             27.8348               6.0804       
       163.03245             27.8008               6.0432       
       163.84761             27.7677               6.0075       
       164.66685             27.7356               5.9731       
       165.49018             27.7042               5.9399       
       166.31763             27.6737               5.9079       
       167.14922             27.6439               5.877        
       167.98497             27.6148               5.8472       
       168.82489             27.5864               5.8183       
       169.66902             27.5587               5.7905       
       170.51736             27.5315               5.7635       
       171.36995             27.5049               5.7374       
        172.2268             27.4788               5.7121       
       173.08793             27.4533               5.6877       
       173.95337             27.4281               5.6639       
       174.82314             27.4035               5.6409       
       175.69726             27.3792               5.6186       
       176.57574             27.3553               5.5969       
       177.45862             27.3317               5.5759       
       178.34591             27.3085               5.5555       
       179.23764             27.2856               5.5357       
       180.13383             27.2629               5.5165       
        181.0345             27.2405               5.4978       
       181.93967             27.2183               5.4796       
       182.84937             27.1963               5.462        
       183.76362             27.1744               5.4449       
       184.68244             27.1527               5.4282       
       185.60585             27.1311               5.4121       
       186.53388             27.1097               5.3963       
       187.46655             27.0883               5.3811       
       188.40388             27.0669               5.3663       
        189.3459             27.0457               5.3519       
       190.29263             27.0244               5.3379       
       191.24409             27.0031               5.3244       
       192.20031             26.9818               5.3112       
       193.16131             26.9604               5.2985       
       194.12712              26.939               5.2861       
       195.09776             26.9174               5.2741       
       196.07325             26.8958               5.2626       
       197.05361              26.874               5.2513       
       198.03888              26.852               5.2405       
       199.02907             26.8299                5.23        
       200.02422             26.8075               5.2199       
       201.02434             26.7849               5.2101       
       202.02946              26.762               5.2007       
       203.03961             26.7388               5.1917       
       204.05481             26.7153               5.183        
       205.07508             26.6914               5.1746       
       206.10046             26.6671               5.1666       
       207.13096             26.6423               5.159        
       208.16661             26.6171               5.1517       
       209.20745             26.5913               5.1447       
       210.25348             26.5649               5.138        
       211.30475             26.5378               5.1318       
       212.36128             26.5101               5.1258       
       213.42308             26.4815               5.1202       
        214.4902             26.4521               5.1149       
       215.56265             26.4217               5.1099       
       216.64046             26.3901               5.1053       
       217.72366             26.3574               5.101        
       218.81228             26.3233               5.0971       
       219.90634             26.2876               5.0935       
       221.00588             26.2501               5.0902       
        222.1109             26.2106               5.0873       
       223.22146             26.1686               5.0847       
       224.33757             26.1238               5.0824       
       225.45925             26.0756               5.0804       
       226.58655             26.0231               5.0788       
       227.71948             25.9655               5.0776       
       228.85808              25.901               5.0766       
       230.00237             25.8274               5.076        
       231.15238             25.7407               5.0758       
       232.30814             25.6341               5.0759       
       233.46969             25.4922               5.0763       
       234.63703             25.2703               5.077        
       235.81022             24.6034               5.0781       
       235.85864              24.506               5.0781       
       236.14137             24.5005               6.1083       
       236.98927             25.1225               6.1123       
       238.17422             25.3599               6.1181       
       239.36509             25.4826               6.1242       
       240.56191             25.5617               6.1307       
       241.76472             25.6173               6.1375       
       242.97355             25.6579               6.1447       
       244.18841             25.6877               6.1523       
       245.40936             25.7091               6.1602       
        246.6364             25.7233               6.1684       
       247.86959             25.7307               6.177        
       249.10893             25.7309               6.186        
       250.35448             25.7223               6.1952       
       251.60625             25.7007               6.2049       
       252.86428             25.6532               6.2149       
        254.1286             25.4844               6.2252       
       254.23287             25.4345               6.226        
       254.56716             25.4375               6.559        
       255.39925             25.6329               6.567        
       256.67624             25.7306               6.5796       
       257.95962             25.7882               6.5925       
       259.24942             25.8307               6.6057       
       260.54567             25.8649               6.6193       
        261.8484              25.894               6.6332       
       263.15764             25.9195               6.6474       
       264.47343             25.9422               6.6619       
       265.79579             25.9628               6.6767       
       267.12477             25.9817               6.6919       
        268.4604             25.9992               6.7073       
        269.8027             26.0156               6.723        
       271.15171              26.031               6.739        
       272.50747             26.0455               6.7552       
       273.87001             26.0593               6.7718       
       275.23936             26.0725               6.7886       
       276.61556             26.0851               6.8057       
       277.99863             26.0972               6.8231       
       279.38863             26.1089               6.8408       
       280.78557             26.1202               6.8587       
        282.1895             26.1311               6.8769       
       283.60044             26.1417               6.8953       
       285.01845              26.152               6.9139       
       286.44354              26.162               6.9328       
       287.87576             26.1718               6.952        
       289.31514             26.1813               6.9714       
       290.76171             26.1906               6.9909       
       292.21552             26.1996               7.0108       
        293.6766             26.2084               7.0308       
       295.14498             26.2169               7.051        
       296.62071             26.2252               7.0715       
       298.10381             26.2333               7.0921       
       299.59433              26.241               7.1129       
        301.0923             26.2484               7.1339       
       302.59776             26.2555               7.1551       
       304.11075             26.2622               7.1764       
        305.6313             26.2685               7.1979       
       307.15946             26.2742               7.2195       
       308.69526             26.2793               7.2413       
       310.23873             26.2837               7.2633       
       311.78993             26.2873               7.2853       
       313.34888             26.2898               7.3075       
       314.91562              26.291               7.3298       
        316.4902             26.2907               7.3523       
       318.07265             26.2883               7.3748       
       319.66301             26.2832               7.3974       
       321.26133             26.2745               7.4201       
       322.86764             26.2606               7.4429       
       324.48197              26.239               7.4657       
       326.10438             26.2044               7.4886       
       327.73491             26.1438               7.5116       
       329.37358              26.004               7.5346       
       330.05637             25.8298               7.5441       
       330.74361             25.8376               8.0762       
       331.02045              25.939               8.0802       
       332.67555             26.1743               8.1044       
       334.33893             26.2855               8.1286       
       336.01062             26.3646               8.1528       
       337.69068              26.429               8.177        
