# Po
# Form Factors from Chantler Tables
# DOI: https://dx.doi.org/10.18434/T4HS32
# automatically retrived 2019-02-28 using URL https://physics.nist.gov/cgi-bin/ffast/ffast.pl

# For f_rel the second term, which is 3/5th of the Cromer-Liberman value, is used as suggested by Chantler.
# Real and imaginary part of the formfactors are: f'(E)=f1(E)+f_rel+f_NT and f''(E)=f2(E)
# see also original publication:  https://doi.org/10.1063/1.555974

# Z = 84
# f_rel = -1.1838 e/atom  (Relativistic correction estimate)
# f_NT = -0.01852 e/atom (Nuclear Thomson correction)


#        E (eV)            f1 (e/atom)          f2 (e/atom)     
        5.286876            -0.937416               0.0         
        5.367797             -2.41276               0.0         
        5.389376             -4.15553               0.0         
        5.421745             -2.35734              3.4161       
        5.502667            -0.804519              3.3425       
        7.408549            -0.402942              2.3271       
        7.521945             -1.99692              2.2951       
        7.552184             -3.91935              2.2868       
        7.597543             -1.93282              6.0662       
        7.710939            -0.178513              6.0099       
         10.69               4.34264               4.8462       
        11.42761             4.66024               4.5909       
        12.21612             4.90165               4.3239       
        13.05903             5.06722               4.0467       
        13.9601              5.15153               3.7622       
        14.92335             5.13926               3.474        
        15.95306              4.9729               3.1862       
        16.44213             4.75222               3.0571       
        16.69379             4.40369               2.9927       
        16.7609              3.99143               2.9757       
        16.86157             4.42715               3.7563       
        17.05382             4.74215               3.6743       
        17.11323             4.79144               3.6495       
        18.23053             5.03153               3.2248       
        19.48844             4.88825               2.8269       
        20.83314             4.55514               2.4755       
        22.27063             4.05987               2.1655       
        23.8073              3.39001               1.8925       
        25.45001             2.50807               1.6524       
        27.20606             1.33278               1.4416       
        29.08327            -0.308155              1.2569       
         30.772              -2.46486              1.119        
        31.09002             -3.08405              1.0956       
         31.243              -3.49185              1.0846       
        31.3686              -4.11851              1.0757       
         31.557              -4.04359              1.935        
         32.028              -4.46733              2.1199       
        33.23523             -6.27486              2.8516       
        35.52846             -10.3112              5.8749       
        37.97993             -13.7002              11.67        
        40.60054             -14.6203              19.832       
        43.40198             -11.7266              28.708       
        46.39671             -5.05348              36.047       
        49.59809             4.00012               40.152       
        53.02035             13.4722               40.538       
        56.67876             21.7164               37.827       
        60.58959             27.8497               33.19        
        64.77028             31.7236               27.795       
        69.23942             33.6554               22.503       
        74.01695             34.1429               17.81        
        79.12411              33.67                13.907       
        84.58368             32.6109               10.798       
        90.41995             31.1832               8.3912       
        96.34786             29.3011               6.6374       
        96.65893              29.152               6.5603       
        97.82257             28.2875               6.2831       
        98.21583             27.3356               6.1932       
        98.80571             28.1544               7.7889       
        100.2804             28.6859               7.4102       
        103.3284             28.6682               6.7105       
        110.4581             27.8604               5.4257       
        118.0797             26.7265               4.4669       
        123.1813             25.7564               3.9909       
        125.0667             25.0497               3.8405       
        125.5695             24.4003               3.8024       
        126.2272             24.8901               4.924        
        126.3237             24.9441               4.9147       
        128.2091              25.282               4.7404       
        134.9368             25.0633               4.2126       
        144.2475             24.3241               3.6646       
        154.2005             23.3895               3.237        
        164.8404             22.2058               2.9046       
        165.9746             22.0528               2.875        
        167.4882              21.824               2.8371       
        168.515              21.6308               2.8123       
        169.1924             21.4179               2.7963       
        170.2086             21.3609               3.0056       
        170.7354             21.2674               3.0006       
        171.8369             21.2395               3.1272       
        172.749              21.1695               3.1215       
        174.4671             20.9684               3.1137       
        175.1685             20.8169               3.1117       
        176.2144             20.7907               3.2793       
        176.2205             20.7905               3.2793       
        178.8507             20.5881               3.3075       
        188.3732             19.6124               3.5269       
        201.3709             18.2002               4.1359       
        215.2655             16.7447               5.163        
        230.1188             15.3646               6.6594       
        245.997              14.2028               8.6349       
        262.9708             13.4078               11.044       
        281.1158              13.109               13.786       
        300.5128             13.3937               16.714       
        321.2482             14.2949               19.659       
        343.4143             15.7831               22.449       
        367.1099             17.7728               24.932       
        392.4405             20.1271               26.992       
        419.5189             22.6628               28.551       
        448.4657             25.0738               29.576       
        463.932              25.9443               29.893       
        471.033              25.8165               29.991       
        472.9266             25.1573               30.013       
        475.767              26.1423               31.612       
        479.4098              26.855               31.677       
        482.868              27.3126               31.733       
        490.196              28.0349               31.835       
        497.699               28.394               31.915       
        499.6998             28.0886               31.933       
         500.0               29.8543               31.936       
       500.56912             30.0971               32.917       
         502.5               30.8473               32.943       
        505.0125             31.3145               32.975       
       507.53756             31.6828               33.005       
       510.07525             32.0415               33.033       
       512.62563             32.3479               33.059       
       515.18875             32.6413               33.083       
        517.7647             32.9232               33.106       
       520.35352             33.1976               33.126       
       522.95529             33.4661               33.145       
       525.57007             33.7299               33.162       
       528.19792             34.0177               33.176       
       530.83891              34.274               33.189       
        533.4931             34.5272               33.199       
       536.16057             34.7775               33.207       
       538.84137             35.0253               33.213       
       541.53558             35.2706               33.216       
       544.24325             35.5138               33.218       
       546.96447              35.755               33.218       
       549.69929             35.9943               33.216       
       552.44779             36.2318               33.212       
       555.21003             36.4677               33.206       
       557.98608             36.7019               33.197       
       560.77601             36.9344               33.187       
       563.57989             37.1652               33.174       
       566.39779             37.3942               33.159       
       569.22978             37.6216               33.142       
       572.07593             37.8472               33.123       
        574.9363              38.071               33.101       
       577.81099             38.2931               33.078       
       580.70004             38.5135               33.053       
       583.60354              38.732               33.026       
       586.52156             38.9487               32.997       
       589.45417             39.1636               32.966       
       592.40144             39.3765               32.934       
       595.36345             39.5876                32.9        
       598.34026             39.7968               32.865       
       601.33196              40.004               32.827       
       604.33862             40.2092               32.788       
       607.36032             40.4124               32.747       
       610.39712             40.6135               32.705       
        613.4491             40.8124               32.661       
       616.51635             41.0091               32.615       
       619.59893             41.2036               32.567       
       622.69693             41.3956               32.518       
       625.81041             41.5853               32.468       
       628.93946             41.7724               32.416       
       632.08416             41.9568               32.362       
       635.24458             42.1385               32.307       
        638.4208             42.3174               32.25        
       641.61291             42.4931               32.193       
       644.82097             42.6657               32.133       
       648.04508             42.8349               32.073       
        651.2853             43.0003               32.011       
       654.54173             43.1619               31.948       
       657.81444             43.3191               31.884       
       661.10351             43.4716               31.818       
       664.40903             43.6189               31.752       
       667.73107             43.7603               31.684       
       671.06973             43.8949               31.615       
       674.42508             44.0216               31.545       
        677.7972             44.1389               31.474       
       681.18619             44.2447               31.402       
       684.59212             44.3358               31.329       
       688.01508             44.4072               31.255       
       691.45515             44.4505               31.179       
       694.91243             44.4498               31.103       
       698.38699             44.3684               31.026       
       701.87893             44.0818               30.947       
       704.06938              43.443               30.898       
       705.38832             42.9682               32.812       
       705.93058             43.5357                32.8        
       708.91526             44.5722               32.734       
       712.45984             45.1446               32.655       
       716.02214             45.5585               32.575       
       719.60225             45.9035               32.494       
       723.20026             46.2095               32.413       
       726.81626             46.4898               32.331       
       730.45034              46.752               32.248       
        734.1026             47.0003               32.164       
       737.77311             47.2377               32.08        
       741.46197             47.4661               31.995       
       745.16928             47.6871               31.91        
       748.89513             47.9015               31.825       
       752.63961             48.1103               31.738       
        756.4028             48.3141               31.652       
       760.18482             48.5134               31.565       
       763.98574             48.7087               31.478       
       767.80567             48.9002               31.391       
        771.6447             49.0883               31.303       
       775.50292             49.2733               31.216       
       779.38044             49.4554               31.128       
       783.27734             49.6348               31.04        
       787.19373             49.8118               30.952       
       791.12969             49.9864               30.863       
       795.08534             50.1589               30.775       
       799.06077             50.3294               30.687       
       803.05607             50.4968               30.591       
       807.07135             50.6603               30.492       
       811.10671              50.82                30.393       
       815.16224             50.9759               30.294       
       819.23806             51.1277               30.195       
       823.33425             51.2751               30.095       
       827.45092             51.4174               29.996       
       831.58817             51.5535               29.896       
       835.74611             51.6817               29.797       
       839.92484             51.7978               29.697       
       844.12447              51.892               29.598       
       848.34509             51.9223               29.494       
       849.73202             51.8761               29.459       
        852.268              51.9655               29.803       
       852.58682             52.0058               29.795       
       856.84975             52.3234               29.691       
        861.134              52.5415               29.587       
       865.43967             52.7324               29.483       
       869.76687             52.9096               29.379       
        874.1157             53.0779               29.275       
       878.48628             53.2398               29.171       
       882.87871             53.3966               29.067       
        887.2931             53.5493               28.963       
       891.72957             53.6983               28.859       
       896.18822             53.8441               28.755       
       900.66916              53.987               28.651       
        905.1725             54.1272               28.548       
       909.69837             54.2648               28.445       
       914.24686               54.4                28.342       
       918.81809             54.5328               28.24        
       923.41218             54.6635               28.137       
       928.02924             54.7919               28.035       
       932.66939             54.9181               27.933       
       937.33274             55.0421               27.832       
        942.0194             55.1638               27.731       
        946.7295             55.2832               27.63        
       951.46315               55.4                27.53        
       956.22046             55.5139               27.43        
       961.00156             55.6246               27.331       
       965.80657             55.7312               27.232       
        970.6356             55.8328               27.133       
       975.48878             55.9271               27.035       
       980.36623             56.0104               26.937       
       985.26806             56.0733               26.84        
        990.1944             56.0866               26.744       
       993.95634             55.9468               26.671       
       995.14537             55.5822               26.648       
       996.64365             56.0239               27.198       
       1000.1211             56.3594               27.128       
       1005.1217             56.6399               26.963       
       1010.1473             56.8589               26.799       
        1015.198              57.05                26.636       
        1020.274             57.2236               26.475       
       1025.3754             57.3845               26.315       
       1030.5023             57.5356               26.156       
       1035.6548             57.6785               25.999       
       1040.8331             57.8144               25.843       
       1046.0372             57.9441               25.688       
       1051.2674             58.0682               25.534       
       1056.5238             58.1873               25.382       
       1061.8064             58.3018               25.231       
       1067.1154             58.4121               25.081       
        1072.451             58.5183               24.932       
       1077.8132             58.6209               24.785       
       1083.2023             58.7199               24.639       
       1088.6183             58.8156               24.494       
       1094.0614             58.9081               24.35        
       1099.5317             58.9976               24.207       
       1105.0294             59.0844               24.066       
       1110.5545             59.1686               23.926       
       1116.1073             59.2503               23.788       
       1121.6878             59.3297               23.65        
       1127.2963             59.4067               23.514       
       1132.9328             59.4816               23.378       
       1138.5974             59.5544               23.244       
       1144.2904             59.6251               23.111       
       1150.0119              59.694               22.979       
       1155.7619             59.7609               22.848       
       1161.5407             59.8261               22.718       
       1167.3484             59.8896               22.589       
       1173.1852             59.9514               22.461       
       1179.0511             60.0117               22.335       
       1184.9464             60.0705               22.209       
       1190.8711             60.1279               22.084       
       1196.8254             60.1836               21.959       
       1202.8096             60.2376               21.834       
       1208.8236             60.2899               21.71        
       1214.8677             60.3407               21.587       
       1220.9421             60.3899               21.465       
       1227.0468             60.4376               21.344       
        1233.182             60.4838               21.224       
