# Pt
# Form Factors from Chantler Tables
# DOI: https://dx.doi.org/10.18434/T4HS32
# automatically retrived 2019-02-28 using URL https://physics.nist.gov/cgi-bin/ffast/ffast.pl

# For f_rel the second term, which is 3/5th of the Cromer-Liberman value, is used as suggested by Chantler.
# Real and imaginary part of the formfactors are: f'(E)=f1(E)+f_rel+f_NT and f''(E)=f2(E)
# see also original publication:  https://doi.org/10.1063/1.555974

# Z = 78
# f_rel = -0.9816 e/atom  (Relativistic correction estimate)
# f_NT = -0.017109 e/atom (Nuclear Thomson correction)


#        E (eV)            f1 (e/atom)          f2 (e/atom)     
        6.002872             3.45968                0.0         
        6.094753             2.90784                0.0         
        6.119254             2.30428                0.0         
        6.156007             2.88178               1.1551       
        6.247887             3.34662               1.1481       
        7.291108             3.09785               1.1299       
        7.402706             2.65794               1.1443       
        7.432466             2.16631               1.1487       
        7.477105             2.64967               2.1018       
        7.588704             3.04264               2.1026       
         10.69               2.24208                3.68        
        11.42761             1.99002               4.4201       
        12.21612             1.81942               5.3113       
        13.05903             1.77552               6.3469       
        13.9601               1.9063               7.5068       
        14.92335             2.25771               8.7543       
        15.95306             2.86702               10.035       
        17.05382             3.75549               11.28        
        18.23053             4.92172               12.411       
        19.48844             6.40179               13.349       
        20.83314             8.01344               14.024       
        22.27063             9.74487               14.387       
        23.8073              11.5501               14.416       
        25.45001             13.2561               14.117       
        27.20606             14.8194               13.517       
        29.08327              16.172               12.675       
        31.09002             17.2718               11.661       
        33.23523             18.0957               10.543       
        35.52846             18.6414               9.3903       
        37.97993              18.922               8.2613       
        40.60054              18.953               7.1971       
        43.40198             18.7355               6.2238       
        46.39671             18.2131               5.3545       
        49.59809             17.0219               4.5925       
         50.666              16.1027               4.3714       
        51.4415              14.2792                4.22        
        51.6483               12.113               4.1809       
        51.9585              14.3873               8.3732       
         52.734              16.3401               8.0731       
        53.02035             16.6791               7.9662       
        56.67876             18.2365               6.761        
        60.58959             18.3622               5.7339       
         63.994              17.6527               5.0073       
        64.77028             17.0874               4.8606       
        64.9735              16.7849               4.8232       
        65.2347               15.784               4.7758       
        65.6265              16.7772               6.6487       
         66.606              17.6018               6.4648       
        69.23942             18.0672               6.0159       
         69.678              18.0661               5.947        
        70.7445              17.8893               5.786        
        71.0289              17.5907               5.7446       
        71.4555              17.9428               6.3025       
         72.522              18.2507               6.1304       
         72.814              18.2857               6.084        
        73.9285              18.2725               5.9091       
        74.01695             18.2476               5.8954       
        74.2257              18.0963               5.8631       
        74.6715              18.3595               6.2059       
         75.786               18.635               6.0247       
        79.12411             18.9032               5.5118       
        84.58368              18.875               4.8128       
        90.41995             18.5797               4.2658       
        96.65893             18.1081               3.8676       
         99.666              17.8325               3.7348       
        101.1915             17.6603               3.6809       
        101.5983             17.5791               3.668        
        102.2085             17.5688               3.7376       
        103.3284             17.4993               3.7087       
        103.734              17.4683               3.6993       
        110.4581             16.8687               3.625        
        118.0797             16.1244               3.7183       
        126.2272             15.3098               4.0106       
        134.9368             14.4497               4.5188       
        144.2475             13.5764               5.2758       
        154.2005             12.7388               6.307        
        164.8404             12.0002               7.6233       
        176.2144             11.4223               9.2248       
        188.3732             11.0854               11.089       
        201.3709             11.0666               13.17        
        215.2655             11.4312               15.392       
        230.1188             12.1856               17.665       
        245.997              13.3649               19.883       
        262.9708             14.9325               21.941       
        281.1158             16.8186               23.742       
        300.5128             18.8722               25.194       
        307.034              19.4815               25.567       
        311.7335             19.7467               25.802       
        312.9867             19.5919               25.86        
        314.8665              20.067               26.509       
        319.566              20.7951               26.733       
        321.2482             21.0057               26.807       
        324.184              21.3431               26.93        
        329.146              21.7758               27.116       
        330.4692             21.7179               27.161       
        332.454              22.1665               27.655       
        337.416              22.9359               27.824       
        343.4143             23.7157               28.001       
        367.1099             26.4497               28.433       
        392.4405             29.0098               28.517       
        419.5189             31.3791               28.305       
        448.4657             33.5086               27.854       
        479.4098             35.3128               27.22        
         500.0               37.3774               26.748       
         502.5               37.4426               26.689       
        505.0125             37.4938               26.629       
       507.53756             37.5258               26.569       
       510.07525             37.5295               26.508       
       512.62563             37.4861               26.447       
       515.18875             37.3474               26.385       
        517.7647             36.8834               26.322       
       518.33567             36.5845               26.308       
       519.66431             36.6506               27.935       
       520.35352             37.0606               27.919       
       522.95529             37.7556               27.859       
       525.57007             38.1518               27.797       
       528.19792             38.4568               27.736       
       530.83891             38.7166               27.674       
        533.4931             38.9489               27.611       
       536.16057             39.1625               27.548       
       538.84137             39.3625               27.485       
       541.53558              39.552               27.421       
       544.24325              39.733               27.357       
       546.96447             39.9071               27.292       
       549.69929             40.0751               27.227       
       552.44779              40.238               27.162       
       555.21003             40.3962               27.096       
       557.98608             40.5502               27.03        
       560.77601             40.7004               26.964       
       563.57989             40.8471               26.897       
       566.39779             40.9903               26.83        
       569.22978             41.1304               26.763       
       572.07593             41.2673               26.696       
        574.9363             41.4011               26.628       
       577.81099             41.5319               26.56        
       580.70004             41.6595               26.492       
       583.60354             41.7837               26.423       
       586.52156             41.9044               26.354       
       589.45417             42.0212               26.285       
       592.40144             42.1333               26.216       
       595.36345             42.2398               26.146       
       598.34026             42.3387               26.076       
       601.33196             42.4263               26.006       
       604.33862              42.493               25.936       
       607.36032             42.4988               25.865       
       608.32884             42.4477               25.843       
       610.07116             42.5165               26.181       
       610.39712             42.5675               26.173       
        613.4491             42.8395               26.104       
       616.51635             43.0235               26.035       
       619.59893             43.1834               25.965       
       622.69693              43.331               25.896       
       625.81041             43.4711               25.826       
       628.93946             43.6057               25.756       
       632.08416             43.7361               25.685       
       635.24458              43.863               25.615       
        638.4208             43.9869               25.545       
       641.61291             44.1081               25.474       
       644.82097              44.227               25.403       
       648.04508             44.3436               25.333       
        651.2853             44.4581               25.262       
       654.54173             44.5706               25.19        
       657.81444             44.6811               25.119       
       661.10351             44.7897               25.048       
       664.40903             44.8964               24.977       
       667.73107             45.0012               24.905       
       671.06973              45.104               24.833       
       674.42508             45.2048               24.762       
        677.7972             45.3036               24.69        
       681.18619             45.4002               24.618       
       684.59212             45.4944               24.546       
       688.01508              45.586               24.474       
       691.45515             45.6747               24.402       
       694.91243             45.7602               24.33        
       698.38699             45.8416               24.257       
       701.87893             45.9183               24.185       
       705.38832             45.9885               24.113       
       708.91526             46.0497               24.04        
       712.45984             46.0968               23.968       
       716.02214             46.1171               23.895       
       719.60225             46.0602               23.823       
       720.85202             45.9688               23.797       
       723.20026             46.0399               24.286       
       726.81626             46.3737               24.214       
       730.45034              46.566               24.142       
        734.1026              46.723               24.07        
       737.77311             46.8632               23.998       
       741.46197             46.9933               23.926       
       745.16928             47.1166               23.855       
       748.89513             47.2348               23.783       
       752.63961             47.3492               23.711       
        756.4028             47.4603               23.639       
       760.18482             47.5687               23.567       
       763.98574             47.6749               23.495       
       767.80567             47.7789               23.423       
        771.6447             47.8812               23.351       
       775.50292             47.9818               23.279       
       779.38044             48.0809               23.207       
       783.27734             48.1786               23.135       
       787.19373              48.275               23.063       
       791.12969             48.3702               22.991       
       795.08534             48.4642               22.919       
       799.06077             48.5571               22.847       
       803.05607              48.649               22.775       
       807.07135             48.7399               22.703       
       811.10671             48.8298               22.631       
       815.16224             48.9187               22.559       
       819.23806             49.0068               22.487       
       823.33425             49.0939               22.415       
       827.45092             49.1802               22.343       
       831.58817             49.2657               22.271       
       835.74611             49.3504               22.199       
       839.92484             49.4342               22.128       
       844.12447             49.5173               22.056       
       848.34509             49.5997               21.984       
       852.58682             49.6813               21.912       
       856.84975             49.7622               21.84        
        861.134              49.8425               21.769       
       865.43967             49.9221               21.697       
       869.76687             50.0011               21.625       
        874.1157             50.0794               21.554       
       878.48628             50.1572               21.482       
       882.87871             50.2342               21.409       
        887.2931             50.3105               21.337       
       891.72957             50.3862               21.265       
       896.18822             50.4612               21.192       
       900.66916             50.5356               21.12        
        905.1725             50.6094               21.048       
       909.69837             50.6826               20.976       
       914.24686             50.7553               20.904       
       918.81809             50.8275               20.832       
       923.41218             50.8992               20.76        
       928.02924             50.9705               20.688       
       932.66939             51.0415               20.616       
       937.33274             51.1122               20.544       
        942.0194             51.1945               20.472       
        946.7295              51.265               20.401       
       951.46315             51.3357               20.329       
       956.22046             51.4065               20.258       
       961.00156              51.478               20.186       
       965.80657             51.5503               20.115       
        970.6356              51.624               20.044       
       975.48878               51.7                19.973       
       980.36623             51.7797               19.901       
       985.26806             51.8653               19.83        
        990.1944             51.9615               19.76        
       995.14537             52.0885               19.689       
       1000.1211             52.2511               19.617       
       1005.1217             52.3662               19.523       
       1010.1473             52.4653               19.429       
        1015.198             52.5532               19.335       
        1020.274             52.6328               19.242       
       1025.3754             52.7062               19.149       
       1030.5023             52.7744               19.056       
       1035.6548             52.8385               18.963       
       1040.8331             52.8989               18.871       
       1046.0372             52.9562               18.779       
       1051.2674             53.0109               18.687       
       1056.5238             53.0631               18.596       
       1061.8064             53.1132               18.505       
       1067.1154             53.1614               18.414       
        1072.451             53.2077               18.324       
       1077.8132             53.2524               18.234       
       1083.2023             53.2955               18.145       
       1088.6183             53.3371               18.056       
       1094.0614             53.3773               17.968       
       1099.5317             53.4162               17.88        
       1105.0294             53.4538               17.792       
       1110.5545             53.4902               17.705       
       1116.1073             53.5254               17.619       
       1121.6878             53.5595               17.532       
       1127.2963             53.5925               17.447       
       1132.9328             53.6245               17.361       
       1138.5974             53.6554               17.276       
       1144.2904             53.6852               17.192       
       1150.0119             53.7141               17.108       
       1155.7619             53.7421               17.024       
       1161.5407             53.7691               16.941       
       1167.3484             53.7952               16.858       
       1173.1852             53.8205               16.776       
       1179.0511             53.8448               16.694       
       1184.9464             53.8683               16.613       
       1190.8711              53.891               16.532       
       1196.8254             53.9129               16.451       
       1202.8096             53.9341               16.371       
       1208.8236             53.9544               16.292       
       1214.8677             53.9741               16.213       
       1220.9421              53.993               16.134       
       1227.0468             54.0111               16.055       
        1233.182             54.0285               15.976       
       1239.3479             54.0452               15.898       
       1245.5447             54.0611               15.821       
       1251.7724             54.0763               15.744       
       1258.0312             54.0907               15.66        
       1264.3214             54.1037               15.574       
        1270.643             54.1153               15.489       
       1276.9962             54.1256               15.405       
