# Ra
# Form Factors from Chantler Tables
# DOI: https://dx.doi.org/10.18434/T4HS32
# automatically retrived 2019-02-27 using URL https://physics.nist.gov/cgi-bin/ffast/ffast.pl
#
# Z = 88
# f_rel = -2.2901 e/atom  (Relativistic correction estimate)
# f_NT = -0.018795 e/atom (Nuclear Thomson correction)


#        E (eV)            f1 (e/atom)          f2 (e/atom)     
         10.69               8.67455                0.0         
        11.42761              8.4185                0.0         
        12.21612             8.09757                0.0         
        13.05903             7.68553                0.0         
        13.9601              7.13831                0.0         
        14.92335             6.37387                0.0         
        15.95306             5.21453                0.0         
        17.05382             3.15972                0.0         
        18.23053             -2.46801               0.0         
         18.424              -4.82521               0.0         
         18.706              -13.4118               0.0         
        18.7812              -24.1391               0.0         
         18.894              -12.2995              21.336       
         19.176              -1.84644              20.138       
        19.48844             2.84485               18.909       
        20.83314             10.5589               14.58        
        22.27063             13.1235               11.391       
        23.8073              14.0976               9.0734       
        25.45001             14.3662               7.3501       
        27.20606             14.2663               6.043        
        29.08327             13.9478               5.0333       
        31.09002             13.4779               4.2398       
        33.23523             12.8811               3.6055       
        35.52846             12.1549               3.0903       
        37.97993             11.2753               2.6654       
        40.60054             10.1903               2.3101       
         42.63               9.18721               2.0856       
        43.2825              8.75905               2.021        
        43.40198             8.63305               2.0095       
        43.4565               8.5366               2.0043       
        43.7175              8.55332               2.2479       
         44.37               8.34232               2.1712       
        46.39671             7.29145               1.9583       
        49.59809             5.12149               1.686        
        53.02035             2.01512               1.4631       
        56.67876             -2.73805              1.2779       
        60.58959             -11.1748              1.1219       
        64.77028             -32.907              0.98972       
         65.856              -47.4805             0.95999       
         66.864              -84.4775             0.93385       
        67.1328              -129.793             0.92711       
         67.536              -81.5129              90.676       
         68.544              -38.6979              88.107       
        69.23942             -25.183               86.403       
        74.01695             16.7949               76.027       
        79.12411             39.2032               62.841       
        84.58368             50.5308               47.007       
        90.41995             53.9992               32.908       
        96.65893             53.0533               22.176       
        103.3284             50.1907               14.723       
        110.4581             46.8363               9.813        
        118.0797             43.6472               6.6634       
        126.2272             40.8441               4.6603       
        134.9368             38.4318               3.3818       
        144.2475             36.2828               2.5563       
        149.744              35.0009               2.2257       
        152.036              34.1577               2.1119       
        152.6472             33.4855               2.0835       
        153.564              33.9519               3.1829       
        154.2005             34.0869               3.1487       
        155.856              34.1482               3.0639       
        164.8404             33.5149               2.6858       
        176.2144             32.4912               2.3545       
        188.3732             31.4074               2.1264       
        196.392              30.5976               2.0219       
        199.398              30.0729               1.9897       
        200.1996             29.6323               1.9817       
        201.3709             29.9598               2.7326       
        201.402              29.9658               2.732        
        204.408               30.156               2.669        
        215.2655             29.7735               2.4791       
        230.1188             28.9357               2.2949       
        245.997              27.8931               2.1714       
        249.312              27.6465               2.1525       
        253.128               27.308               2.1331       
        254.1456             27.1421               2.1284       
        255.672              27.1336               2.3106       
        259.488              26.9504               2.2969       
        262.9708             26.7324               2.2861       
        281.1158             25.3662               2.2513       
        292.922              24.2392               2.2434       
        297.4055             23.6634               2.2427       
        298.6011             23.3898               2.2426       
        300.5128             23.3078               2.5373       
        304.878              22.9194               2.6178       
        321.2482             20.9903               3.1454       
        343.4143             17.9636               4.8261       
        367.1099             14.9829               8.0373       
        392.4405             12.9109               12.796       
        419.5189             12.5181               18.539       
        448.4657              14.088               24.348       
        479.4098             17.3436               29.352       
         500.0               19.9917               31.83        
         502.5               20.3224               32.085       
        505.0125             20.6558               32.331       
       507.53756             20.9916               32.568       
       510.07525             21.3295               32.798       
       512.62563              21.669               33.018       
       515.18875              22.01                33.23        
        517.7647              22.352               33.433       
       520.35352             22.6946               33.628       
       522.95529             23.0376               33.815       
       525.57007             23.3805               33.993       
       528.19792             23.7231               34.163       
       530.83891              24.065               34.324       
        533.4931             24.4057               34.477       
       536.16057             24.7449               34.622       
       538.84137             25.0822               34.758       
       541.53558             25.4172               34.887       
       544.24325             25.7495               35.008       
       546.96447             26.0786               35.121       
       549.69929             26.4041               35.226       
       552.44779             26.7253               35.323       
       555.21003             27.0418               35.413       
       557.98608             27.3529               35.495       
       560.77601             27.6579               35.57        
       563.57989             27.9561               35.638       
       566.39779             28.2464               35.699       
       569.22978             28.5278               35.752       
       572.07593             28.7989               35.799       
        574.9363             29.0581               35.839       
       577.81099             29.3031               35.873       
       580.70004             29.5311                35.9        
       583.60354             29.7381               35.92        
       586.52156             29.9182               35.935       
       589.45417             30.0619               35.943       
       592.40144             30.1531               35.945       
       595.36345             30.1592               35.942       
       598.34026             29.9953               35.933       
       601.33196             29.2551               35.918       
       602.33476             28.1756               35.912       
       603.06523             28.2393               38.694       
       604.33862             29.6827               38.694       
       607.36032             30.8787               38.691       
       610.39712             31.5882               38.683       
        613.4491             32.1403               38.67        
       616.51635             32.6067               38.653       
       619.59893             33.0128               38.631       
       622.69693             33.3668               38.605       
       625.81041             33.6656               38.574       
       628.93946             33.8905               38.539       
       632.08416              33.976                38.5        
       635.24458             33.4274               38.457       
       635.51339             33.1788               38.453       
       636.28665             33.2693               40.113       
        638.4208             34.5166               40.092       
       641.61291             35.3225               40.056       
       644.82097             35.9249               40.018       
       648.04508             36.4485               39.976       
        651.2853             36.9281               39.931       
       654.54173             37.3785               39.883       
       657.81444             37.8076               39.832       
       661.10351             38.2202               39.778       
       664.40903             38.6194               39.721       
       667.73107             39.0072               39.661       
       671.06973             39.3852               39.599       
       674.42508             39.7542               39.533       
        677.7972             40.1151               39.465       
       681.18619             40.4686               39.394       
       684.59212             40.8152               39.32        
       688.01508             41.1552               39.243       
       691.45515             41.4891               39.165       
       694.91243             41.8173               39.084       
       698.38699             42.1399                39.0        
       701.87893             42.4572               38.915       
       705.38832             42.7696               38.827       
       708.91526             43.0769               38.737       
       712.45984             43.3794               38.645       
       716.02214             43.6772               38.551       
       719.60225             43.9702               38.454       
       723.20026             44.2586               38.356       
       726.81626             44.5425               38.256       
       730.45034             44.8219               38.154       
        734.1026             45.0973               38.05        
       737.77311             45.3681               37.945       
       741.46197             45.6343               37.838       
       745.16928             45.8962               37.729       
       748.89513             46.1537               37.619       
       752.63961             46.4069               37.507       
        756.4028             46.6557               37.394       
       760.18482             46.9002               37.28        
       763.98574             47.1418               37.165       
       767.80567             47.3777               37.049       
        771.6447             47.6093               36.931       
       775.50292             47.8366               36.813       
       779.38044             48.0595               36.694       
       783.27734              48.278               36.573       
       787.19373              48.492               36.453       
       791.12969             48.7015               36.331       
       795.08534             48.9063               36.208       
       799.06077             49.1065               36.085       
       803.05607             49.3018               35.962       
       807.07135             49.4921               35.838       
       811.10671             49.6771               35.713       
       815.16224             49.8568               35.588       
       819.23806             50.0306               35.462       
       823.33425             50.1983               35.336       
       827.45092             50.3593               35.21        
       831.58817             50.5131               35.084       
       835.74611             50.6587               34.957       
       839.92484             50.7952               34.831       
       844.12447              50.921               34.704       
       848.34509             51.0341               34.577       
       852.58682             51.1313               34.45        
       856.84975             51.2079               34.322       
        861.134              51.2561               34.195       
       865.43967             51.2614               34.068       
       869.76687             51.1919               33.941       
        874.1157             50.9533               33.815       
       878.13301             50.0116               33.698       
       878.48628             49.7184               33.688       
       880.06703             50.0925               35.771       
       882.87871              51.132               35.691       
        887.2931              51.837               35.565       
       891.72957             52.3086               35.437       
       896.18822             52.6899               35.31        
       900.66916             53.0796               35.183       
        905.1725              53.381               35.056       
       909.69837             53.6606               34.929       
       914.24686             53.9237               34.802       
       918.81809              54.174               34.676       
       923.41218             54.4138               34.55        
       928.02924             54.6448               34.425       
       932.66939             54.8684               34.299       
       937.33274             55.0855               34.174       
        942.0194             55.2969               34.049       
        946.7295             55.5032               33.925       
       951.46315              55.705               33.801       
       956.22046             55.9026               33.678       
       961.00156             56.0964               33.554       
       965.80657             56.2868               33.432       
        970.6356              56.474               33.31        
       975.48878             56.6583               33.188       
       980.36623             56.8399               33.067       
       985.26806             57.0189               32.946       
        990.1944             57.1956               32.825       
       995.14537             57.3702               32.705       
       1000.1211             57.5463               32.586       
       1005.1217             57.7446               32.45        
       1010.1473             57.9277               32.315       
        1015.198             58.1027               32.18        
        1020.274             58.2709               32.042       
       1025.3754             58.4309               31.896       
       1030.5023             58.5829               31.75        
       1035.6548             58.7255               31.605       
       1040.8331             58.8563               31.46        
       1046.0372             58.9694               31.316       
       1051.2674             59.0469               31.172       
       1056.3415              58.973               31.033       
       1056.5238             58.9564               31.028       
       1058.8586             59.0552               31.408       
       1061.8064              59.313               31.327       
       1067.1154             59.5829               31.184       
        1072.451              59.798               31.04        
       1077.8132              59.991               30.893       
       1083.2023             60.1701               30.743       
       1088.6183             60.3396               30.593       
       1094.0614             60.5016               30.443       
       1099.5317             60.6574               30.294       
       1105.0294             60.8076               30.146       
       1110.5545             60.9527               29.998       
       1116.1073             61.0936               29.852       
       1121.6878             61.2307               29.706       
       1127.2963             61.3642               29.561       
       1132.9328             61.4942               29.416       
       1138.5974             61.6206               29.273       
       1144.2904             61.7436               29.129       
       1150.0119              61.863               28.987       
       1155.7619             61.9786               28.845       
       1161.5407             62.0901               28.703       
       1167.3484             62.1972               28.563       
       1173.1852             62.2989               28.423       
       1179.0511             62.3941               28.284       
       1184.9464             62.4806               28.145       
       1190.8711             62.5541               28.007       
       1196.8254             62.6045               27.862       
       1202.8096             62.5965               27.686       
       1206.9862             62.4346               27.566       
       1208.8236             62.2684               28.07        
       1209.8138             62.5012               28.041       
       1214.8677             62.8656               27.897       
       1220.9421             63.0927               27.725       
       1227.0468             63.2691               27.555       
        1233.182             63.4222               27.386       
       1239.3479             63.5611               27.219       
       1245.5447             63.6899               27.053       
       1251.7724             63.8109               26.888       
       1258.0312             63.9254               26.725       
       1264.3214             64.0345               26.562       
        1270.643             64.1386               26.399       
       1276.9962             64.2386               26.238       
       1283.3812             64.3348               26.078       
       1289.7981             64.4275               25.92        
       1296.2471              64.517               25.763       
       1302.7283             64.6035               25.607       
        1309.242             64.6871               25.453       
       1315.7882             64.7681                25.3        
       1322.3671             64.8465               25.148       
        1328.979             64.9226               24.998       
       1335.6239             64.9964               24.849       
        1342.302             65.0681               24.701       
