# Re
# Form Factors from Chantler Tables
# DOI: https://dx.doi.org/10.18434/T4HS32
# automatically retrived 2019-02-27 using URL https://physics.nist.gov/cgi-bin/ffast/ffast.pl
#
# Z = 75
# f_rel = -1.5033 e/atom  (Relativistic correction estimate)
# f_NT = -0.016572 e/atom (Nuclear Thomson correction)


#        E (eV)            f1 (e/atom)          f2 (e/atom)     
        5.104943             6.39581                0.0         
        5.183079             6.22399                0.0         
        5.203916             6.06267                0.0         
        5.235171              6.1935              0.29128       
        5.313308             6.27314              0.29108       
        5.941418             5.68875              0.29183       
        6.032358             5.20729              0.29392       
        6.056608             4.66114               0.2946       
        6.092984             5.19845               1.353        
        6.183924             5.64768               1.3515       
         10.69               5.27266               3.4278       
        11.42761             5.29226               4.0421       
        12.21612             5.41943               4.7143       
        13.05903             5.67608               5.4183       
        13.9601               6.0766               6.1198       
        14.92335             6.62422               6.7783       
        15.95306             7.32014               7.3518       
        17.05382             8.11734               7.8016       
        18.23053             9.03318               8.0975       
        19.48844             9.93792               8.2213       
        20.83314              10.825               8.169        
        22.27063              11.646               7.9498       
        23.8073               12.356               7.5848       
        25.45001             12.9157               7.1023       
        27.20606             13.2835               6.5331       
        29.08327             13.4089               5.9161       
        31.09002             13.1912               5.2858       
        33.23523             12.1962               4.6699       
         33.908              11.3408               4.4909       
         34.427              9.48514               4.3575       
        34.5654              7.26152               4.3227       
         34.773              9.56931               8.6457       
         35.292              11.5804               8.4385       
        35.52846              12.012               8.3464       
        37.97993             13.7977               7.4692       
         39.788              14.0851               6.8764       
         40.397              13.8521               6.6792       
        40.5594              13.4579               6.6271       
        40.60054             12.3158               7.4507       
         40.803              13.9357               7.3752       
         41.412              14.3817               7.1514       
        43.40198             14.6487               6.459        
         44.688              14.2887               6.0458       
         45.372              13.4221               5.8392       
        45.5544              12.3252               5.7861       
         45.828              13.4803               7.8921       
        46.39671             14.4092               7.7273       
         46.512              14.5135               7.6948       
        49.59809             15.6927               6.9252       
        53.02035             16.1494               6.224        
        56.67876             16.3094               5.5605       
        60.58959             16.2441               4.9727       
        64.77028             15.9999               4.4941       
        69.23942             15.6151               4.1483       
        74.01695             15.1211               3.9512       
        79.12411             14.5397               3.9137       
         81.144              14.2945               3.9429       
         82.386              14.1235               3.9724       
        82.7172              14.0506               3.9817       
         83.214              14.0293               4.0659       
         84.456              13.9194               4.1106       
        84.58368             13.9067               4.1157       
        90.41995             13.2976               4.4316       
        96.65893              12.672               4.9343       
        103.3284             12.0734               5.6326       
        110.4581             11.5404               6.5277       
        118.0797             11.1085               7.6212       
        126.2272             10.7184               8.9002       
        134.9368             10.6211               10.339       
        144.2475             10.7502               11.905       
        154.2005             11.1382               13.559       
        164.8404              11.818               15.249       
        176.2144             12.7984               16.875       
        188.3732             14.0334               18.361       
        201.3709             15.4684               19.667       
        215.2655             17.0427               20.765       
        230.1188             18.6854               21.642       
        245.997              20.2842               22.298       
        254.996              20.9838               22.546       
        258.899              21.0168               22.617       
        259.9398             20.7081               22.633       
        261.501              21.2542               23.451       
        262.9708             21.5754               23.476       
        265.404               21.941               23.512       
        268.226              22.2642               23.548       
        272.3315             22.5202               23.59        
        273.4263             22.3395               23.599       
        275.0685             22.8457               24.223       
        279.174              23.5829               24.248       
        281.1158             23.8558               24.256       
        300.5128              26.038               24.224       
        321.2482             27.8948               24.038       
        343.4143             29.5561               23.74        
        367.1099             31.0382               23.355       
        392.4405             32.3241               22.909       
        419.5189             33.3221               22.423       
        435.512              33.5331               22.138       
        442.178              33.1448               22.021       
        443.9556             32.4487               21.99        
        446.622              33.3164               23.44        
        448.4657             33.6747               23.411       
        453.288              34.2307               23.334       
        479.4098             35.8103               22.929       
         500.0               38.1737               22.62        
         502.5               38.2614               22.582       
        505.0125             38.3446               22.545       
       507.53756             38.4222               22.508       
       510.07525             38.4914               22.471       
       512.62563             38.5464               22.433       
       515.18875             38.5692               22.396       
       517.17493             38.4935               22.367       
        517.7647             38.3234               22.358       
       518.62505             38.5476               22.706       
       520.35352             38.7517               22.682       
       522.95529             38.9309               22.646       
       525.57007             39.0747               22.61        
       528.19792             39.2038               22.574       
       530.83891             39.3248               22.538       
        533.4931             39.4403               22.502       
       536.16057              39.552               22.465       
       538.84137             39.6606               22.429       
       541.53558             39.7667               22.392       
       544.24325             39.8708               22.356       
       546.96447             39.9731               22.319       
       549.69929             40.0738               22.282       
       552.44779              40.173               22.245       
       555.21003             40.2708               22.208       
       557.98608             40.3674               22.171       
       560.77601             40.4628               22.134       
       563.57989              40.557               22.096       
       566.39779             40.6501               22.059       
       569.22978              40.742               22.021       
       572.07593             40.8328               21.984       
        574.9363             40.9224               21.946       
       577.81099             41.0109               21.908       
       580.70004             41.0981               21.87        
       583.60354              41.184               21.831       
       586.52156             41.2685               21.793       
       589.45417             41.3514               21.755       
       592.40144             41.4327               21.716       
       595.36345              41.512               21.677       
       598.34026             41.5891               21.638       
       601.33196             41.6635               21.599       
       604.33862             41.7346               21.56        
       607.36032             41.8015               21.521       
       610.39712             41.8628               21.481       
        613.4491              41.916               21.442       
       616.51635             41.9562               21.402       
       619.59893             41.9716               21.362       
       622.69693             41.9186               21.322       
       624.04375             41.8089               21.304       
       625.81041             41.8323               21.814       
       625.95625             41.8646               21.813       
       628.93946             42.1912               21.775       
       632.08416             42.3815               21.735       
       635.24458             42.5346               21.696       
        638.4208             42.6708               21.656       
       641.61291             42.7972               21.616       
       644.82097             42.9171               21.575       
       648.04508             43.0325               21.535       
        651.2853             43.1444               21.494       
       654.54173             43.2535               21.453       
       657.81444             43.3605               21.412       
       661.10351             43.4656               21.371       
       664.40903             43.5692               21.33        
       667.73107             43.6714               21.288       
       671.06973             43.7725               21.247       
       674.42508             43.8725               21.205       
        677.7972             43.9716               21.163       
       681.18619             44.0699               21.12        
       684.59212             44.1675               21.078       
       688.01508             44.2644               21.036       
       691.45515             44.3607               20.993       
       694.91243             44.4564               20.95        
       698.38699             44.5516               20.907       
       701.87893             44.6463               20.864       
       705.38832             44.7405               20.82        
       708.91526             44.8344               20.777       
       712.45984             44.9278               20.733       
       716.02214             45.0208               20.689       
       719.60225             45.1135               20.645       
       723.20026             45.2059                20.6        
       726.81626              45.298               20.556       
       730.45034             45.3899               20.511       
        734.1026             45.4814               20.466       
       737.77311             45.5728               20.421       
       741.46197              45.664               20.376       
       745.16928              45.755               20.33        
       748.89513             45.8458               20.285       
       752.63961             45.9366               20.238       
        756.4028              46.027               20.191       
       760.18482             46.1171               20.144       
       763.98574             46.2073               20.087       
       767.80567             46.2969               20.016       
        771.6447             46.3852               19.945       
       775.50292             46.4724               19.874       
       779.38044             46.5584               19.803       
       783.27734             46.6603               19.732       
       787.19373             46.7442               19.661       
       791.12969             46.8271               19.589       
       795.08534             46.9089               19.518       
       799.06077             46.9896               19.447       
       803.05607             47.0694               19.376       
       807.07135             47.1481               19.305       
       811.10671             47.2259               19.233       
       815.16224             47.3028               19.162       
       819.23806             47.3787               19.091       
       823.33425             47.4642               19.02        
       827.45092             47.5385               18.949       
       831.58817             47.6119               18.878       
       835.74611             47.6846               18.807       
       839.92484             47.7564               18.736       
       844.12447             47.8274               18.665       
       848.34509             47.8977               18.594       
       852.58682             47.9672               18.523       
       856.84975              48.036               18.452       
        861.134              48.1042               18.381       
       865.43967             48.1717               18.311       
       869.76687             48.2386               18.24        
        874.1157             48.3049               18.169       
       878.48628             48.3706               18.099       
       882.87871             48.4356               18.028       
        887.2931             48.5001               17.957       
       891.72957             48.5641               17.887       
       896.18822             48.6275               17.816       
       900.66916             48.6905               17.746       
        905.1725             48.7531               17.676       
       909.69837             48.8152               17.605       
       914.24686             48.8771               17.535       
       918.81809             48.9386               17.465       
       923.41218             48.9999               17.395       
       928.02924              49.061               17.326       
       932.66939              49.122               17.256       
       937.33274              49.183               17.187       
        942.0194             49.2439               17.117       
        946.7295              49.305               17.048       
       951.46315             49.3663               16.979       
       956.22046             49.4279               16.91        
       961.00156             49.4899               16.842       
       965.80657             49.5525               16.773       
        970.6356             49.6158               16.705       
       975.48878              49.68                16.637       
       980.36623             49.7453               16.568       
       985.26806             49.8119               16.501       
        990.1944             49.8802               16.433       
       995.14537             49.9503               16.365       
       1000.1211             50.0219               16.298       
       1005.1217              50.061               16.208       
       1010.1473             50.0969               16.118       
        1015.198             50.1305               16.03        
        1020.274             50.1623               15.942       
       1025.3754             50.1926               15.854       
       1030.5023             50.2215               15.767       
       1035.6548             50.2493               15.681       
       1040.8331             50.2761               15.595       
       1046.0372             50.3014               15.499       
       1051.2674             50.3249               15.404       
       1056.5238             50.3467               15.309       
       1061.8064             50.3668               15.215       
       1067.1154             50.3853               15.121       
        1072.451             50.4022               15.029       
       1077.8132             50.4177               14.937       
       1083.2023             50.4316               14.846       
       1088.6183             50.4442               14.755       
       1094.0614             50.4554               14.666       
       1099.5317              50.465               14.571       
       1105.0294             50.4729               14.476       
       1110.5545              50.479               14.382       
       1116.1073             50.4833               14.288       
       1121.6878             50.4859               14.195       
       1127.2963             50.4869               14.104       
       1132.9328             50.4862               14.013       
       1138.5974             50.4839               13.922       
       1144.2904             50.4801               13.833       
       1150.0119             50.4747               13.744       
       1155.7619             50.4678               13.656       
       1161.5407             50.4594               13.569       
       1167.3484             50.4495               13.483       
       1173.1852             50.4381               13.397       
       1179.0511             50.4252               13.312       
       1184.9464             50.4109               13.228       
       1190.8711             50.3951               13.144       
       1196.8254             50.3779               13.062       
       1202.8096             50.3593               12.98        
       1208.8236             50.3392               12.898       
       1214.8677             50.3177               12.817       
       1220.9421             50.2948               12.737       
       1227.0468             50.2704               12.658       
        1233.182             50.2446               12.579       
       1239.3479             50.2173               12.501       
       1245.5447             50.1886               12.424       
       1251.7724             50.1584               12.347       
       1258.0312             50.1268               12.271       
       1264.3214             50.0936               12.196       
        1270.643              50.059               12.121       
       1276.9962             50.0229               12.047       
       1283.3812             49.9853               11.973       
       1289.7981             49.9461                11.9        
       1296.2471             49.9054               11.828       
       1302.7283              49.863               11.756       
        1309.242             49.8191               11.685       
