# Rn
# Form Factors from Chantler Tables
# DOI: https://dx.doi.org/10.18434/T4HS32
# automatically retrived 2019-02-27 using URL https://physics.nist.gov/cgi-bin/ffast/ffast.pl
#
# Z = 86
# f_rel = -2.1548 e/atom  (Relativistic correction estimate)
# f_NT = -0.018276 e/atom (Nuclear Thomson correction)


#        E (eV)            f1 (e/atom)          f2 (e/atom)     
        6.983358            -0.140095               0.0         
        7.090247             -3.65878               0.0         
        7.11875              -7.81185               0.0         
        7.161505             -3.56804              8.1423       
        7.268393             0.118324              8.0559       
        10.36116             5.66085               6.1586       
        10.51975             3.81936               6.0731       
        10.56204             1.52197               6.0503       
        10.62547             3.94006               10.589       
         10.69               5.17172               10.549       
        10.78406             6.12627               10.49        
        11.42761             8.74822               10.095       
        12.21612             10.2947               9.6193       
        13.05903             11.4147               9.1051       
        13.9601              12.2984               8.5549       
        14.92335             13.0077               7.9757       
        15.95306              13.569               7.3766       
        17.05382              13.995               6.7681       
        18.23053             14.2914               6.1609       
        19.48844             14.4558               5.5654       
        20.83314             14.4536               4.9909       
        21.50088             14.3221               4.7288       
        21.82997             14.0652               4.6051       
        21.91773             13.7421               4.5727       
        22.04937             14.0981               5.1661       
        22.27063             14.3434                5.06        
        22.37846             14.4059               5.0094       
        23.8073              14.6485               4.398        
        25.45001             14.5702               3.8144       
        27.20606             14.3338               3.305        
        29.08327             13.9752               2.8602       
        31.09002             13.4979               2.4732       
        33.23523             12.8882               2.1375       
        35.52846             12.1116               1.8474       
        37.97993             11.1011               1.5975       
        40.60054             9.71476               1.3831       
        43.40198              7.5025               1.1998       
        44.03377             6.61733               1.1638       
        44.21079             6.06317               1.154        
        44.47632             6.11258               1.9003       
        45.14014             5.70144               2.0626       
        46.39671             4.46382               2.5115       
        47.71733             2.86062               3.256        
        48.44769             1.73346               3.831        
        48.64246             1.20154               4.0084       
        48.93461             1.09802               4.8805       
        49.59809             0.548964              5.7157       
        49.66497             0.487096              5.8056       
        53.02035             -1.93666              11.563       
        56.67876             -1.22725              19.562       
        60.58959             3.88824               26.915       
        64.77028             12.0963               30.979       
        69.23942             20.7994               30.837       
        74.01695              27.79                27.401       
        79.12411             32.1498               22.374       
        84.58368             34.0728               17.225       
        90.41995             34.2577               12.783       
        96.65893             33.4211               9.3169       
        103.3284             32.0793               6.7727       
        110.4581             30.4937                4.97        
        116.4403             28.9252               3.9417       
        118.0797             28.1442               3.7156       
        118.2225              28.025               3.6969       
        118.6978             27.2188               3.6356       
        119.4107             27.8741               4.983        
        121.1929             28.2651               4.7285       
        126.2272             28.0674               4.1171       
        134.9368             27.1812               3.3446       
        144.2475             26.1099               2.8039       
        148.7358             25.4432               2.6129       
        151.0123             24.8184               2.5291       
        151.6194              24.244               2.508        
        152.5301             24.7286               3.5104       
        154.2005             24.9993               3.4236       
        154.8066             25.0287               3.3934       
        164.8404             24.7151               2.9726       
        176.2144              23.965               2.6352       
        188.3732              23.016               2.3872       
        196.8143              22.251               2.2627       
        199.8268              21.909               2.2257       
        200.6301             21.7529               2.2165       
        201.3709             21.7327               2.3672       
        201.8351             21.7199               2.3624       
        204.8475             21.4941               2.3331       
        208.3358             21.1551               2.3028       
        211.5247             20.7692               2.2781       
        212.375              20.5986               2.2719       
        213.6505             20.5293               2.424        
        215.2655             20.3888               2.4306       
        216.8393             20.2233               2.4393       
        218.5326             20.0163               2.4512       
        219.4112             19.8639               2.4584       
        220.7289             19.7713               2.5887       
        224.0234             19.4461               2.6548       
        230.1188             18.7511               2.8285       
        245.997              16.7587               3.6929       
        262.9708             14.6405               5.3284       
        281.1158             12.7195               7.8484       
        300.5128             11.3765               11.196       
        321.2482             10.9309               15.124       
        343.4143             11.5467               19.26        
        367.1099             13.1988               23.215       
        392.4405             15.7191               26.664       
        419.5189             18.8335               29.399       
        448.4657             22.2323               31.33        
        479.4098             25.5879               32.465       
         500.0               29.5309               32.803       
         502.5               29.7362               32.825       
        505.0125             29.9351               32.843       
       507.53756             30.1269               32.858       
       510.07525             30.3105               32.87        
       512.62563             30.4844               32.878       
       515.18875             30.6471               32.882       
        517.7647              30.796               32.884       
       520.35352              30.928               32.881       
       522.95529              31.038               32.876       
       525.57007             31.1182               32.867       
       528.19792             31.1544               32.855       
       530.83891             31.1176               32.84        
        533.4931             30.9285               32.822       
       536.16057             30.1218               32.801       
       536.62464             29.5906               32.797       
       537.37536             29.6396               34.991       
       538.84137             30.8512               34.99        
       541.53558             31.6665               34.986       
       544.24325              32.176               34.979       
       546.96447             32.5751               34.969       
       549.69929             32.9118               34.958       
       552.44779             33.2033               34.943       
       555.21003             33.4546               34.926       
       557.98608             33.6619               34.907       
       560.77601             33.8074               34.886       
       563.57989             33.8277               34.862       
       566.20227             33.2339               34.838       
       566.39779             32.9664               34.836       
       566.99778             33.3106               36.163       
       569.22978             34.3287               36.153       
       572.07593             34.9154               36.137       
        574.9363             35.3665               36.12        
       577.81099             35.7617               36.101       
       580.70004             36.1253               36.081       
       583.60354             36.4681               36.058       
       586.52156             36.7957               36.034       
       589.45417             37.1118               36.008       
       592.40144             37.4186               35.981       
       595.36345             37.7178               35.951       
       598.34026             38.0104               35.92        
       601.33196             38.2972               35.887       
       604.33862             38.5799               35.852       
       607.36032             38.8567               35.815       
       610.39712             39.1291               35.776       
        613.4491             39.3975               35.735       
       616.51635             39.6621               35.693       
       619.59893             39.9233               35.649       
       622.69693             40.1811               35.604       
       625.81041             40.4359               35.557       
       628.93946             40.6877               35.508       
       632.08416             40.9366               35.457       
       635.24458             41.1827               35.404       
        638.4208             41.3791               35.35        
       641.61291             41.6194               35.293       
       644.82097             41.8566               35.235       
       648.04508              42.091               35.175       
        651.2853             42.3224               35.113       
       654.54173              42.551               35.049       
       657.81444             42.7766               34.984       
       661.10351             42.9767               34.918       
       664.40903             43.1965               34.849       
       667.73107             43.4133               34.78        
       671.06973             43.6272               34.709       
       674.42508              43.838               34.636       
        677.7972             44.0458               34.562       
       681.18619             44.2505               34.487       
       684.59212             44.4519               34.411       
       688.01508             44.6501               34.333       
       691.45515              44.845               34.254       
       694.91243             45.0363               34.174       
       698.38699              45.224               34.092       
       701.87893             45.4079               34.01        
       705.38832             45.5879               33.927       
       708.91526             45.7637               33.842       
       712.45984              45.935               33.756       
       716.02214             46.1016               33.67        
       719.60225             46.2634               33.582       
       723.20026             46.4192               33.493       
       726.81626             46.5686               33.403       
       730.45034             46.7106               33.312       
        734.1026             46.8442               33.221       
       737.77311             46.9678               33.128       
       741.46197             47.0795               33.035       
       745.16928              47.176               32.941       
       748.89513             47.2528               32.847       
       752.63961             47.3017               32.752       
        756.4028             47.3079               32.656       
       760.18482             47.2386               32.56        
       763.98574             46.9914               32.463       
       766.74817             46.3685               32.392       
       767.80567             45.2125               32.365       
       769.25185             46.4868               34.363       
        771.6447             47.2908               34.303       
       775.50292             47.9373               34.206       
       779.38044             48.3848               34.109       
       783.27734             48.7516               34.012       
       787.19373             49.0741               33.914       
       791.12969             49.3681               33.815       
       795.08534             49.6421               33.717       
       799.06077              49.901               33.618       
       803.05607             50.1481               33.519       
       807.07135             50.3857               33.419       
       811.10671             50.6152               33.32        
       815.16224             50.8379               33.22        
       819.23806             51.0546               33.12        
       823.33425             51.2662               33.02        
       827.45092              51.473               32.92        
       831.58817             51.6756               32.82        
       835.74611             51.8744               32.719       
       839.92484             52.0697               32.618       
       844.12447             52.2617               32.517       
       848.34509             52.4507               32.416       
       852.58682             52.6369               32.315       
       856.84975             52.8203               32.214       
        861.134              53.0013               32.113       
       865.43967             53.1797               32.012       
       869.76687             53.3559               31.91        
        874.1157             53.5297               31.809       
       878.48628             53.7013               31.708       
       882.87871             53.8706               31.607       
        887.2931             54.0377               31.506       
       891.72957             54.2024               31.405       
       896.18822             54.3645               31.304       
       900.66916             54.5238               31.204       
        905.1725             54.6795               31.103       
       909.69837             54.8299               30.998       
       914.24686              54.971               30.888       
       918.81809             55.0973               30.778       
       923.41218             55.1925               30.668       
       927.41143             55.1769               30.572       
       928.02924             55.1352               30.558       
       930.58861             55.2949               30.911       
       932.66939             55.4822               30.862       
       937.33274             55.7633               30.754       
        942.0194              55.996               30.646       
        946.7295             56.2118               30.539       
       951.46315             56.4197               30.432       
       956.22046             56.6239               30.325       
       961.00156             56.8263               30.214       
       965.80657             57.0283               30.102       
        970.6356             57.2318               29.991       
       975.48878             57.4383               29.879       
       980.36623              57.65                29.768       
       985.26806             57.8693               29.657       
        990.1944             58.0996               29.547       
       995.14537             58.3452               29.438       
       1000.1211             58.6103               29.327       
       1005.1217             58.7658               29.144       
       1010.1473             58.9081               28.963       
        1015.198             59.0411               28.784       
        1020.274             59.1666               28.605       
       1025.3754             59.2858               28.429       
       1030.5023             59.3992               28.253       
       1035.6548             59.5072               28.079       
       1040.8331             59.6099               27.906       
       1046.0372             59.7075               27.735       
       1051.2674             59.7997               27.565       
       1056.5238             59.8863               27.397       
       1061.8064             59.9668               27.23        
       1067.1154             60.0404               27.064       
        1072.451             60.1053               26.899       
       1077.8132              60.159               26.736       
       1083.2023             60.1956               26.574       
       1088.6183             60.2002               26.414       
       1094.0614             60.1063               26.255       
       1095.6507             59.9958               26.208       
       1098.3493             60.0526               26.68        
       1099.5317             60.1813               26.646       
       1105.0294             60.4681               26.489       
       1110.5545             60.6426               26.334       
       1116.1073             60.7835               26.18        
       1121.6878             60.9072               26.027       
       1127.2963              61.02                25.875       
       1132.9328             61.1249               25.724       
       1138.5974             61.2238               25.575       
       1144.2904             61.3177               25.427       
       1150.0119             61.4074               25.28        
       1155.7619             61.4935               25.134       
       1161.5407             61.5764               24.99        
       1167.3484             61.6564               24.847       
       1173.1852             61.7338               24.704       
       1179.0511             61.8087               24.563       
       1184.9464             61.8813               24.423       
       1190.8711             61.9518               24.285       
       1196.8254             62.0202               24.147       
       1202.8096             62.0867               24.01        
       1208.8236             62.1515               23.875       
       1214.8677             62.2144               23.74        
       1220.9421             62.2758               23.607       
       1227.0468             62.3355               23.475       
        1233.182             62.3937               23.344       
       1239.3479             62.4505               23.213       
       1245.5447             62.5058               23.084       
       1251.7724             62.5598               22.956       
