# Sm
# Form Factors from Chantler Tables
# DOI: https://dx.doi.org/10.18434/T4HS32
# automatically retrived 2019-02-27 using URL https://physics.nist.gov/cgi-bin/ffast/ffast.pl
#
# Z = 62
# f_rel = -0.91787 e/atom  (Relativistic correction estimate)
# f_NT = -0.014025 e/atom (Nuclear Thomson correction)


#        E (eV)            f1 (e/atom)          f2 (e/atom)     
          5.39               12.6627                0.0         
         5.4725              12.6395                0.0         
         5.4945               12.62                 0.0         
         5.5275              12.6329              0.033428      
          5.61               12.6384              0.035067      
         10.69               11.9895              0.19065       
        11.42761             11.8453              0.21975       
        12.21612             11.6714               0.2527       
        13.05903             11.4588              0.29009       
        13.9601              11.1936              0.33254       
        14.92335             10.8539               0.3808       
        15.95306             10.4023              0.43567       
        17.05382              9.8018              0.49806       
        18.23053             8.82703              0.56895       
        19.48844             7.04772              0.64942       
        20.83314             1.54367               0.7406       
         20.874              1.13415              0.74345       
        21.1935              -5.42605             0.76591       
        21.2787              -13.5144             0.77195       
        21.4065              -4.77791              16.823       
         21.726              2.94811               16.205       
        22.27063             7.74165               15.23        
        23.8073              13.1791               12.929       
        25.45001             15.6856               10.907       
        27.20606             16.9697               9.1675       
        29.08327             17.5776               7.7466       
        31.09002             17.7918               6.6351       
        33.23523             17.7805               5.7999       
        35.52846             17.6467               5.1995       
         36.652              17.5585               4.988        
         37.213              17.5059               4.8988       
        37.3626               17.483               4.8768       
         37.587              17.4764               4.867        
        37.97993             17.4536               4.8155       
         38.148              17.4423               4.7949       
        40.60054             17.2685               4.5712       
        43.40198              17.089               4.4534       
        46.39671             16.9349               4.4363       
        49.59809             16.8151               4.4994       
        53.02035              16.735               4.6244       
        56.67876             16.6946               4.7895       
        60.58959             16.6887               4.9941       
        64.77028             16.7318               5.2307       
        69.23942             16.7934               5.4931       
        74.01695             16.8862               5.7767       
        79.12411             17.0075               6.0781       
        84.58368             17.1534               6.3945       
        90.41995             17.3175               6.7245       
        96.65893             17.4882               7.067        
         100.0               20.5652               7.246        
         100.5               20.5766               7.2725       
        101.0025             20.5878               7.2991       
       101.50751             20.5987               7.3257       
       102.01505             20.6092               7.3525       
       102.52513             20.6194               7.3792       
       103.03775             20.6291               7.4061       
       103.55294             20.6388               7.4181       
        104.0707             20.6473               7.4167       
       104.59106              20.654               7.415        
       105.11401             20.6588               7.4132       
       105.63958             20.6616               7.4111       
       106.16778             20.6622               7.4088       
       106.69862             20.6607               7.4063       
       107.23211             20.6569               7.4036       
       107.76827             20.6506               7.4007       
       108.30712             20.6417               7.3976       
       108.84865             20.6301               7.3943       
       109.39289             20.6155               7.3907       
       109.93986             20.5979               7.387        
       110.48956             20.5769               7.383        
       111.04201             20.5524               7.3789       
       111.59722              20.524               7.3745       
        112.1552             20.4915               7.3699       
       112.71598              20.455               7.3651       
       113.27956             20.4131               7.3602       
       113.84596             20.3659               7.355        
       114.41519             20.3129               7.3496       
       114.98726             20.2535               7.344        
        115.5622             20.1871               7.3381       
       116.14001             20.1128               7.3321       
       116.72071             20.0299               7.3259       
       117.30431             19.9372               7.3195       
       117.89083             19.8336               7.3129       
       118.48029             19.7175               7.3061       
       119.07269             19.5872               7.299        
       119.66805             19.4406               7.2918       
       120.26639              19.275               7.2844       
       120.86772             19.0872               7.2768       
       121.47206             18.8731               7.2689       
       122.07942             18.6273               7.2609       
       122.68982             18.3429               7.2527       
       123.30327             18.0107               7.2443       
       123.91979             17.6178               7.2357       
       124.53939             17.1458               7.2269       
       125.16208             16.5674               7.2179       
       125.78789             15.8392               7.2087       
       126.41683             14.8876               7.1994       
       127.04892             13.5719               7.1898       
       127.68416             11.5723               7.1801       
       128.32258             7.86869               7.1701       
       128.96419             -11.309                7.16        
       128.97987             -15.2959              7.1598       
       129.02012             -15.1333              29.133       
       129.60902             10.0196               27.85        
       130.25706             15.8212               26.53        
       130.90835              19.185               25.292       
       131.56289             21.5087               24.132       
        132.2207             23.2368               23.044       
       132.88181             24.5738               22.024       
       133.54621             25.6325               21.068       
       134.21395              26.483               20.171       
       134.88502              27.172               19.331       
       135.55944             27.7327               18.542       
       136.23724             28.1894               17.803       
       136.91842             28.5606               17.109       
       137.60302             28.8605               16.459       
       138.29103             29.1007               15.848       
       138.98249             29.2902               15.276       
        139.6774             29.4363               14.738       
       140.37579              29.545               14.234       
       141.07766             29.6211               13.76        
       141.78305             29.6681               13.315       
       142.49197             29.6888                12.9        
       143.20443             29.6881               12.519       
       143.92045             29.6719               12.169       
       144.64005             29.6442               11.846       
       145.36325              29.608               11.549       
       146.09007             29.5655               11.275       
       146.82052             29.5185               11.022       
       147.55462             29.4682               10.787       
       148.29239             29.4158               10.569       
       149.03386             29.3622               10.367       
       149.77903             29.3078               10.178       
       150.52792             29.2534               10.003       
       151.28056             29.1992               9.839        
       152.03696             29.1457               9.6858       
       152.79715              29.093               9.5424       
       153.56113             29.0414               9.4079       
       154.32894              28.991               9.2816       
       155.10058             28.9419               9.1628       
       155.87609             28.8941               9.051        
       156.65547             28.8478               8.9455       
       157.43875              28.803               8.8458       
       158.22594             28.7596               8.7516       
       159.01707             28.7177               8.6623       
       159.81215             28.6773               8.5777       
       160.61121             28.6382               8.4973       
       161.41427             28.6006               8.4208       
       162.22134             28.5644               8.348        
       163.03245             28.5295               8.2786       
       163.84761             28.4959               8.2124       
       164.66685             28.4635               8.1491       
       165.49018             28.4324               8.0885       
       166.31763             28.4024               8.0305       
       167.14922             28.3735               7.9749       
       167.98497             28.3457               7.9215       
       168.82489             28.3189               7.8702       
       169.66902              28.293               7.8208       
       170.51736             28.2681               7.7732       
       171.36995             28.2441               7.7274       
        172.2268             28.2209               7.6831       
       173.08793             28.1985               7.6404       
       173.95337             28.1769               7.5991       
       174.82314             28.1559               7.5591       
       175.69726             28.1357               7.5204       
       176.57574              28.116               7.4829       
       177.45862              28.097               7.4465       
       178.34591             28.0785               7.4112       
       179.23764             28.0606               7.3769       
       180.13383             28.0431               7.3436       
        181.0345             28.0261               7.3112       
       181.93967             28.0095               7.2796       
       182.84937             27.9933               7.2489       
       183.76362             27.9774               7.219        
       184.68244             27.9619               7.1898       
       185.60585             27.9467               7.1614       
       186.53388             27.9318               7.1336       
       187.46655             27.9171               7.1065       
       188.40388             27.9026               7.0801       
        189.3459             27.8883               7.0543       
       190.29263             27.8742               7.029        
       191.24409             27.8603               7.0043       
       192.20031             27.8464               6.9802       
       193.16131             27.8327               6.9566       
       194.12712              27.819               6.9335       
       195.09776             27.8054               6.911        
       196.07325             27.7918               6.8889       
       197.05361             27.7782               6.8673       
       198.03888             27.7645               6.8461       
       199.02907             27.7509               6.8254       
       200.02422             27.7372               6.8051       
       201.02434             27.7234               6.7853       
       202.02946             27.7095               6.7659       
       203.03961             27.6954               6.7469       
       204.05481             27.6812               6.7283       
       205.07508             27.6669                6.71        
       206.10046             27.6523               6.6922       
       207.13096             27.6375               6.6748       
       208.16661             27.6225               6.6577       
       209.20745             27.6071               6.6411       
       210.25348             27.5915               6.6248       
       211.30475             27.5756               6.6088       
       212.36128             27.5593               6.5932       
       213.42308             27.5425               6.578        
        214.4902             27.5254               6.5632       
       215.56265             27.5078               6.5487       
       216.64046             27.4897               6.5345       
       217.72366              27.471               6.5207       
       218.81228             27.4518               6.5072       
       219.90634             27.4319               6.4941       
       221.00588             27.4112               6.4814       
        222.1109             27.3899               6.4689       
       223.22146             27.3676               6.4569       
       224.33757             27.3445               6.4451       
       225.45925             27.3203               6.4337       
       226.58655              27.295               6.4227       
       227.71948             27.2684               6.412        
       228.85808             27.2404               6.4016       
       230.00237             27.2109               6.3916       
       231.15238             27.1796               6.3819       
       232.30814             27.1462               6.3726       
       233.46969             27.1104               6.3636       
       234.63703             27.0719               6.3549       
       235.81022             27.0301               6.3466       
       236.98927             26.9843               6.3386       
       238.17422             26.9336               6.331        
       239.36509             26.8767               6.3237       
       240.56191             26.8116               6.3167       
       241.76472             26.7352               6.3101       
       242.97355              26.642               6.3039       
       244.18841             26.5215               6.2979       
       245.40936             26.3473               6.2924       
        246.6364             26.0106               6.2871       
        247.2382             25.4816               6.2847       
        247.5618             25.4768               7.338        
       247.86959             25.8299               7.3379       
       249.10893             26.2469               7.3374       
       250.35448             26.4145               7.3374       
       251.60625             26.5167               7.3377       
       252.86428             26.5877               7.3383       
        254.1286             26.6399               7.3393       
       255.39925             26.6792               7.3407       
       256.67624             26.7086               7.3424       
       257.95962             26.7296               7.3445       
       259.24942             26.7429               7.347        
       260.54567             26.7477               7.3498       
        261.8484             26.7422               7.353        
       263.15764             26.7202               7.3565       
       264.47343             26.6594               7.3604       
       265.40451             26.4878               7.3634       
       265.79579             26.4932               7.6966       
       267.12477             26.7272               7.7027       
        268.4604             26.8103               7.7093       
        269.8027             26.8667               7.7162       
       271.15171             26.9111               7.7235       
       272.50747             26.9484               7.7311       
       273.87001             26.9811               7.739        
       275.23936             27.0104               7.7473       
       276.61556             27.0371               7.7559       
       277.99863             27.0617               7.7649       
       279.38863             27.0847               7.7741       
       280.78557             27.1063               7.7837       
        282.1895             27.1266               7.7935       
       283.60044              27.146               7.8037       
       285.01845             27.1645               7.8141       
       286.44354             27.1822               7.8249       
       287.87576             27.1992               7.836        
       289.31514             27.2157               7.8473       
       290.76171             27.2316               7.859        
       292.21552              27.247               7.8709       
        293.6766             27.2619               7.8831       
       295.14498             27.2764               7.8956       
       296.62071             27.2906               7.9084       
       298.10381             27.3044               7.9214       
       299.59433             27.3179               7.9347       
        301.0923             27.3311               7.9482       
       302.59776              27.344               7.962        
       304.11075             27.3566               7.9761       
        305.6313              27.369               7.9903       
       307.15946              27.381               8.0049       
       308.69526             27.3928               8.0196       
       310.23873             27.4042               8.0345       
       311.78993             27.4154               8.0497       
       313.34888             27.4262               8.0651       
       314.91562             27.4367               8.0807       
        316.4902             27.4468               8.0965       
       318.07265             27.4565               8.1124       
       319.66301             27.4657               8.1286       
       321.26133             27.4743               8.1449       
       322.86764             27.4823               8.1614       
       324.48197             27.4896               8.1781       
       326.10438             27.4959               8.1949       
       327.73491             27.5013               8.2118       
       329.37358             27.5053               8.2289       
       331.02045             27.5077               8.2462       
       332.67555              27.508               8.2635       
       334.33893             27.5057               8.281        
       336.01062             27.4998               8.2986       
       337.69068             27.4889               8.3163       
       339.37913             27.4705               8.334        
       341.07602             27.4395               8.3519       
