# Ta
# Form Factors from Chantler Tables
# DOI: https://dx.doi.org/10.18434/T4HS32
# automatically retrived 2019-02-27 using URL https://physics.nist.gov/cgi-bin/ffast/ffast.pl
#
# Z = 73
# f_rel = -1.4008 e/atom  (Relativistic correction estimate)
# f_NT = -0.016156 e/atom (Nuclear Thomson correction)


#        E (eV)            f1 (e/atom)          f2 (e/atom)     
         5.586               7.28675                0.0         
         5.6715              6.76355                0.0         
         5.6943              6.16326                0.0         
         5.7285              6.76103               1.1669       
         5.814               7.26809               1.1599       
         10.69               7.69658               2.5477       
        11.42761              7.8067               2.8946       
        12.21612             7.98392               3.2454       
        13.05903             8.23109               3.5808       
        13.9601              8.54464               3.8799       
        14.92335             8.91402               4.1228       
        15.95306             9.32207               4.2927       
        17.05382             9.74633               4.3785       
        18.23053              10.186               4.3754       
        19.48844             10.5634               4.2858       
        20.83314             10.8749               4.1184       
        22.27063             11.0871               3.8864       
        23.8073              11.1318               3.6051       
          24.5               11.0153               3.4725       
         24.875              10.7494               3.4002       
         24.975              10.4085               3.3809       
         25.125              10.7805               4.0323       
        25.45001             11.0837               3.9475       
          25.5               11.1091               3.9346       
        27.20606             11.3983               3.5119       
        29.08327             11.2851               3.1071       
        31.09002             10.8955               2.7577       
        33.23523             10.1007               2.4597       
        35.52846             7.89513               2.2126       
         35.672              7.57475               2.1993       
         36.218              5.03659               2.151        
        36.3636              1.99183               2.1387       
         36.582               5.1986               8.1125       
         37.128              7.98196               7.8708       
        37.97993             9.52533               7.5184       
        40.60054             11.1476               6.5983       
        43.40198             11.1433               5.7736       
         44.002              10.8095               5.616        
        44.6755              9.67052               5.4478       
        44.8551              8.21964               5.4045       
        45.1245              9.77292               8.2372       
         45.798              11.1684               8.0408       
        46.39671              11.716               7.8751       
        49.59809             12.9598               7.1262       
        53.02035             13.4527               6.4845       
        56.67876             13.5799               5.9403       
        60.58959             13.4579               5.5463       
        64.77028              13.168               5.3333       
        69.23942             12.7668               5.3146       
         69.678               12.723               5.323        
        70.7445              12.6034               5.3504       
        71.0289              12.5498               5.3593       
        71.4555              12.5391               5.4288       
         72.522              12.4678               5.473        
        74.01695             12.3489               5.5495       
        79.12411             12.1364               5.9225       
        84.58368             11.7681               6.4758       
        90.41995             11.4742               7.1961       
        96.65893             11.2899               8.0678       
         100.0               12.8748               8.5641       
         100.5               12.8726               8.6395       
        101.0025             12.8714               8.7155       
       101.50751             12.8712               8.7918       
       102.01505             12.8719               8.8686       
       102.52513             12.8735               8.9457       
       103.03775             12.8761               9.0233       
       103.55294             12.8797               9.1013       
        104.0707             12.8842               9.1796       
       104.59106             12.8896               9.2583       
       105.11401              12.896               9.3373       
       105.63958             12.9034               9.4166       
       106.16778             12.9116               9.4962       
       106.69862             12.9209               9.5762       
       107.23211              12.931               9.6566       
       107.76827             12.9422               9.7375       
       108.30712             12.9542               9.8187       
       108.84865             12.9673               9.9001       
       109.39289             12.9802               9.9818       
       109.93986             12.9951               10.064       
       110.48956              13.011               10.146       
       111.04201             13.0279               10.228       
       111.59722             13.0457               10.31        
        112.1552             13.0645               10.393       
       112.71598             13.0842               10.476       
       113.27956             13.1049               10.559       
       113.84596             13.1265               10.642       
       114.41519              13.149               10.725       
       114.98726             13.1725               10.808       
        115.5622             13.1969               10.891       
       116.14001             13.2223               10.974       
       116.72071             13.2486               11.058       
       117.30431             13.2758               11.141       
       117.89083             13.3039               11.225       
       118.48029              13.333               11.308       
       119.07269              13.363               11.391       
       119.66805             13.3939               11.475       
       120.26639             13.4257               11.558       
       120.86772             13.4584               11.642       
       121.47206              13.492               11.725       
       122.07942             13.5265               11.808       
       122.68982              13.562               11.891       
       123.30327             13.5983               11.975       
       123.91979             13.6354               12.058       
       124.53939             13.6735               12.141       
       125.16208             13.7124               12.223       
       125.78789             13.7522               12.306       
       126.41683             13.7929               12.388       
       127.04892             13.8344               12.471       
       127.68416             13.8768               12.553       
       128.32258              13.92                12.635       
       128.96419              13.964               12.717       
       129.60902             14.0089               12.799       
       130.25706             14.0546               12.88        
       130.90835             14.1012               12.961       
       131.56289             14.1485               13.042       
        132.2207             14.1967               13.123       
       132.88181             14.2456               13.203       
       133.54621             14.2954               13.284       
       134.21395             14.3459               13.364       
       134.88502             14.3974               13.443       
       135.55944             14.4494               13.523       
       136.23724             14.5023               13.602       
       136.91842             14.5559               13.681       
       137.60302             14.6102               13.759       
       138.29103             14.6653               13.837       
       138.98249             14.7211               13.915       
        139.6774             14.7776               13.993       
       140.37579             14.8348               14.07        
       141.07766             14.8928               14.147       
       141.78305             14.9514               14.223       
       142.49197             15.0108               14.299       
       143.20443             15.0708               14.375       
       143.92045             15.1314               14.45        
       144.64005             15.1928               14.525       
       145.36325             15.2548                14.6        
       146.09007             15.3174               14.674       
       146.82052             15.3807               14.747       
       147.55462             15.4445               14.821       
       148.29239              15.509               14.893       
       149.03386             15.5741               14.966       
       149.77903             15.6398               15.038       
       150.52792             15.7061               15.109       
       151.28056             15.7729               15.18        
       152.03696             15.8404               15.251       
       152.79715             15.9083               15.321       
       153.56113             15.9768               15.391       
       154.32894             16.0459               15.46        
       155.10058             16.1154               15.529       
       155.87609             16.1855               15.597       
       156.65547             16.2561               15.664       
       157.43875             16.3272               15.732       
       158.22594             16.3987               15.798       
       159.01707             16.4707               15.865       
       159.81215             16.5432               15.93        
       160.61121             16.6161               15.996       
       161.41427             16.6895               16.06        
       162.22134             16.7632               16.125       
       163.03245             16.8374               16.188       
       163.84761              16.912               16.251       
       164.66685              16.987               16.314       
       165.49018             17.0623               16.376       
       166.31763              17.138               16.438       
       167.14922             17.2141               16.499       
       167.98497             17.2905               16.559       
       168.82489             17.3672               16.619       
       169.66902             17.4443               16.679       
       170.51736             17.5216               16.737       
       171.36995             17.5992               16.796       
        172.2268             17.6771               16.854       
       173.08793             17.7552               16.911       
       173.95337             17.8336               16.967       
       174.82314             17.9123               17.024       
       175.69726             17.9911               17.079       
       176.57574             18.0701               17.134       
       177.45862             18.1494               17.189       
       178.34591             18.2288               17.243       
       179.23764             18.3083               17.296       
       180.13383              18.388               17.349       
        181.0345             18.4678               17.401       
       181.93967             18.5477               17.453       
       182.84937             18.6277               17.504       
       183.76362             18.7078               17.554       
       184.68244             18.7879               17.604       
       185.60585              18.868               17.654       
       186.53388             18.9482               17.703       
       187.46655             19.0283               17.751       
       188.40388             19.1084               17.799       
        189.3459             19.1884               17.846       
       190.29263             19.2683               17.893       
       191.24409             19.3481               17.939       
       192.20031             19.4278               17.984       
       193.16131             19.5073               18.03        
       194.12712             19.5866               18.074       
       195.09776             19.6657               18.118       
       196.07325             19.7444               18.161       
       197.05361             19.8229               18.204       
       198.03888              19.901               18.247       
       199.02907             19.9787               18.288       
       200.02422             20.0559               18.33        
       201.02434             20.1327               18.37        
       202.02946             20.2088               18.41        
       203.03961             20.2844               18.45        
       204.05481             20.3592               18.489       
       205.07508             20.4332               18.528       
       206.10046             20.5063               18.566       
       207.13096             20.5785               18.603       
       208.16661             20.6495               18.64        
       209.20745             20.7192               18.677       
       210.25348             20.7876               18.713       
       211.30475             20.8543               18.748       
       212.36128             20.9192               18.783       
       213.42308             20.9841               18.818       
        214.4902             21.0445               18.852       
       215.56265             21.1022               18.885       
       216.64046             21.1565               18.918       
       217.72366              21.207               18.951       
       218.81228             21.2528               18.983       
       219.90634             21.2929               19.014       
       221.00588             21.3258               19.045       
        222.1109             21.3495               19.076       
       223.22146             21.3608               19.106       
       224.33757             21.3548               19.136       
       225.45925             21.3227               19.165       
       226.58655              21.246               19.194       
       227.71948             21.0755               19.222       
       228.85808             20.5488               19.25        
       229.12551             20.1182               19.256       
        229.4745             20.1515               20.798       
       230.00237             20.8776               20.801       
       231.15238             21.4396               20.809       
       232.30814             21.7556               20.816       
       233.46969             21.9858               20.822       
       234.63703             22.1673               20.829       
       235.81022             22.3129               20.836       
       236.98927             22.4251               20.842       
       238.17422             22.4973               20.848       
       239.36509             22.5048               20.854       
       240.56191             22.3329               20.86        
       241.11348             21.9165               20.862       
       241.48653             21.9736               21.999       
       241.76472              22.345               21.997       
       242.97355             22.9759               21.985       
       244.18841             23.3313               21.974       
       245.40936             23.6106               21.963       
        246.6364             23.8518               21.951       
       247.86959             24.0694               21.94        
       249.10893             24.2706               21.929       
       250.35448             24.4594               21.918       
       251.60625             24.6386               21.907       
       252.86428             24.8097               21.895       
        254.1286             24.9737               21.875       
       255.39925             25.1317               21.856       
       256.67624             25.2844               21.837       
       257.95962             25.4326               21.819       
       259.24942             25.5769               21.801       
       260.54567             25.7176               21.784       
        261.8484             25.8552               21.767       
       263.15764             25.9882               21.743       
       264.47343             26.1181               21.719       
       265.79579             26.2449               21.696       
       267.12477              26.369               21.673       
        268.4604             26.4904               21.65        
        269.8027             26.6096               21.629       
       271.15171             26.7268               21.608       
       272.50747             26.8421               21.587       
       273.87001             26.9557               21.567       
       275.23936             27.0677               21.548       
       276.61556             27.1783               21.529       
       277.99863             27.2875               21.51        
       279.38863             27.3954               21.492       
       280.78557             27.5021               21.474       
        282.1895             27.6077               21.457       
       283.60044             27.7122               21.439       
       285.01845             27.8157               21.422       
       286.44354             27.9182               21.406       
       287.87576             28.0198               21.389       
       289.31514             28.1205               21.373       
       290.76171             28.2203               21.357       
       292.21552             28.3193               21.341       
        293.6766             28.4174               21.325       
       295.14498             28.5149               21.309       
       296.62071             28.6115               21.294       
       298.10381             28.7074               21.278       
       299.59433             28.8026               21.263       
        301.0923             28.8971               21.248       
       302.59776             28.9909               21.233       
       304.11075             29.0841               21.218       
        305.6313             29.1766               21.203       
       307.15946             29.2684               21.188       
       308.69526             29.3596               21.173       
       310.23873             29.4502               21.159       
       311.78993             29.5401               21.144       
       313.34888             29.6295               21.129       
       314.91562             29.7182               21.115       
        316.4902             29.8063                21.1        
       318.07265             29.8938               21.086       
       319.66301             29.9807               21.071       
       321.26133              30.067               21.057       
       322.86764             30.1527               21.043       
       324.48197             30.2378               21.028       
       326.10438             30.3224               21.014       
