# Tb
# Form Factors from Chantler Tables
# DOI: https://dx.doi.org/10.18434/T4HS32
# automatically retrived 2019-02-28 using URL https://physics.nist.gov/cgi-bin/ffast/ffast.pl

# For f_rel the second term, which is 3/5th of the Cromer-Liberman value, is used as suggested by Chantler.
# Real and imaginary part of the formfactors are: f'(E)=f1(E)+f_rel+f_NT and f''(E)=f2(E)
# see also original publication:  https://doi.org/10.1063/1.555974

# Z = 65
# f_rel = -0.6234 e/atom  (Relativistic correction estimate)
# f_NT = -0.014584 e/atom (Nuclear Thomson correction)


#        E (eV)            f1 (e/atom)          f2 (e/atom)     
         8.428                12.981                0.0         
         8.557               12.9472                0.0         
         8.5914              12.9206                0.0         
         8.643               12.9376              0.044183      
         8.772               12.9409              0.043243      
         9.212               12.8773              0.040279      
         9.353               12.8122              0.039401      
         9.3906              12.7429              0.039172      
         9.447               12.8081              0.16984       
         9.588               12.8578              0.16622       
         10.69                12.837              0.14498       
        11.42761             12.7683              0.14004       
        12.21612              12.678              0.14113       
        13.05903             12.5663              0.14746       
        13.9601              12.4303              0.15886       
        14.92335              12.265              0.17558       
        15.95306             12.0622              0.19819       
        17.05382             11.8097              0.22759       
        18.23053             11.4875              0.26496       
        19.48844              11.061              0.31175       
        20.83314              10.462              0.36973       
        22.27063             9.52814              0.44091       
        23.8073              7.69941              0.52762       
         24.892               4.2122               0.5954       
         25.273             -0.441891              0.6205       
        25.3746               -6.107               0.6273       
        25.45001             -3.53795              11.903       
         25.527             -0.0875725             11.837       
         25.908              5.18255               11.522       
        27.20606             10.2633               10.564       
        29.08327              13.005               9.3993       
        31.09002             14.5382               8.2623       
        33.23523             15.3677               7.2428       
        35.52846             15.7615               6.4036       
        37.97993             15.8784               5.7661       
         38.22               15.8782               5.7162       
         38.805              15.8646               5.6032       
         38.961              15.8469               5.5751       
         39.195               15.861               5.5671       
         39.78               15.8659               5.4739       
        40.60054             15.8529               5.3603       
        43.40198             15.7544               5.1021       
        46.39671             15.6225               4.9983       
        49.59809             15.5046               5.018        
        53.02035              15.409               5.1339       
        56.67876             15.3482               5.3289       
        60.58959             15.3299               5.585        
        64.77028             15.3572               5.8872       
        69.23942             15.4298               6.2227       
        74.01695             15.5456               6.5815       
        79.12411             15.7156               6.9551       
        84.58368             15.9045               7.3372       
        90.41995              16.12                7.7227       
        96.65893             16.3527               8.1079       
         100.0               19.0901               8.3031       
         100.5               19.1079               8.3317       
        101.0025             19.1257               8.3603       
       101.50751             19.1434               8.3888       
       102.01505             19.1611               8.4173       
       102.52513             19.1787               8.4458       
       103.03775             19.1962               8.4743       
       103.55294             19.2136               8.5028       
        104.0707             19.2309               8.5312       
       104.59106             19.2481               8.5596       
       105.11401             19.2651               8.588        
       105.63958             19.2821               8.6164       
       106.16778             19.2988               8.6447       
       106.69862             19.3154               8.6731       
       107.23211             19.3318               8.7014       
       107.76827              19.348               8.7296       
       108.30712             19.3639               8.7579       
       108.84865             19.3797               8.7861       
       109.39289             19.3951               8.8143       
       109.93986             19.4103               8.8425       
       110.48956             19.4252               8.8707       
       111.04201             19.4397               8.8988       
       111.59722             19.4539               8.9269       
        112.1552             19.4677               8.955        
       112.71598             19.4811               8.983        
       113.27956              19.494               9.011        
       113.84596             19.5065               9.039        
       114.41519             19.5185               9.067        
       114.98726             19.5299               9.095        
        115.5622             19.5408               9.1229       
       116.14001              19.551               9.1508       
       116.72071             19.5605               9.1787       
       117.30431             19.5699               9.2065       
       117.89083              19.578               9.2343       
       118.48029             19.5852               9.2621       
       119.07269             19.5916               9.2899       
       119.66805              19.597               9.3177       
       120.26639             19.6013               9.3454       
       120.86772             19.6046               9.3731       
       121.47206             19.6066               9.4008       
       122.07942             19.6074               9.4284       
       122.68982             19.6068               9.456        
       123.30327             19.6047               9.4836       
       123.91979              19.601               9.5112       
       124.53939             19.5955               9.5388       
       125.16208             19.5881               9.5663       
       125.78789             19.5786               9.5939       
       126.41683             19.5668               9.6214       
       127.04892             19.5526               9.6488       
       127.68416             19.5357               9.6763       
       128.32258             19.5159               9.7037       
       128.96419             19.4927               9.7312       
       129.60902              19.466               9.7586       
       130.25706             19.4354               9.7859       
       130.90835             19.4003               9.8133       
       131.56289             19.3604               9.8407       
        132.2207              19.315               9.868        
       132.88181             19.2636               9.8953       
       133.54621             19.2052               9.9226       
       134.21395              19.139               9.9499       
       134.88502              19.064               9.9772       
       135.55944             18.9787               10.004       
       136.23724             18.8818               10.032       
       136.91842             18.7711               10.059       
       137.60302             18.6444               10.086       
       138.29103             18.4986               10.113       
       138.98249              18.33                10.141       
        139.6774             18.1334               10.168       
       140.37579             17.9023               10.195       
       141.07766             17.6275               10.222       
       141.78305             17.2961               10.249       
       142.49197             16.8889               10.277       
       143.20443             16.3762               10.304       
       143.92045              15.708               10.331       
       144.64005             14.7917               10.358       
       145.36325             13.4255               10.385       
       146.09007             11.0209               10.412       
       146.82052             3.47099               10.44        
       146.95355             -3.34446              10.444       
       147.04645             -3.13135              26.773       
       147.55462             10.5112               26.136       
       148.29239             15.5232               25.261       
       149.03386             18.2741               24.438       
       149.77903             20.1565               23.664       
       150.52792             21.5618               22.936       
       151.28056             22.6604               22.252       
       152.03696             23.5434               21.608       
       152.79715             24.2662               21.004       
       153.56113             24.8653               20.435       
       154.32894             25.3661               19.901       
       155.10058             25.7872               19.399       
       155.87609             26.1426               18.928       
       156.65547             26.4432               18.485       
       157.43875             26.6977               18.07        
       158.22594             26.9127               17.68        
       159.01707              27.094               17.314       
       159.81215              27.246               16.97        
       160.61121             27.3723               16.648       
       161.41427             27.4756               16.347       
       162.22134             27.5581               16.054       
       163.03245             27.6224               15.784       
       163.84761              27.673               15.536       
       164.66685             27.7135               15.31        
       165.49018             27.7462               15.103       
       166.31763             27.7731               14.913       
       167.14922             27.7956               14.738       
       167.98497              27.815               14.578       
       168.82489             27.8322               14.43        
       169.66902              27.848               14.295       
       170.51736             27.8629               14.17        
       171.36995             27.8775               14.055       
        172.2268             27.8921               13.95        
       173.08793             27.9072               13.852       
       173.95337             27.9231               13.763       
       174.82314             27.9398               13.68        
       175.69726             27.9578               13.604       
       176.57574             27.9771               13.531       
       177.45862             27.9983               13.428       
       178.34591             28.0193               13.33        
       179.23764             28.0402               13.237       
       180.13383             28.0611               13.148       
        181.0345             28.0821               13.062       
       181.93967             28.1031               12.981       
       182.84937             28.1242               12.902       
       183.76362             28.1455               12.826       
       184.68244             28.1669               12.754       
       185.60585             28.1885               12.684       
       186.53388             28.2102               12.616       
       187.46655             28.2321               12.551       
       188.40388             28.2542               12.487       
        189.3459             28.2763               12.426       
       190.29263             28.2986               12.367       
       191.24409              28.321               12.309       
       192.20031             28.3435               12.253       
       193.16131             28.3661               12.198       
       194.12712             28.3888               12.145       
       195.09776             28.4115               12.093       
       196.07325             28.4343               12.043       
       197.05361             28.4571               11.993       
       198.03888             28.4799               11.945       
       199.02907             28.5027               11.898       
       200.02422             28.5254               11.851       
       201.02434             28.5481               11.806       
       202.02946             28.5708               11.761       
       203.03961             28.5934               11.718       
       204.05481             28.6158               11.675       
       205.07508             28.6382               11.632       
       206.10046             28.6604               11.591       
       207.13096             28.6825               11.55        
       208.16661             28.7045               11.51        
       209.20745             28.7262               11.47        
       210.25348             28.7478               11.431       
       211.30475             28.7691               11.393       
       212.36128             28.7903               11.355       
       213.42308             28.8112               11.317       
        214.4902             28.8318               11.28        
       215.56265             28.8522               11.244       
       216.64046             28.8723               11.208       
       217.72366             28.8921               11.172       
       218.81228             28.9116               11.137       
       219.90634             28.9308               11.102       
       221.00588             28.9497               11.068       
        222.1109             28.9682               11.034       
       223.22146             28.9864                11.0        
       224.33757             29.0041               10.967       
       225.45925             29.0215               10.934       
       226.58655             29.0385               10.902       
       227.71948             29.0551               10.87        
       228.85808             29.0713               10.838       
       230.00237              29.087               10.807       
       231.15238             29.1023               10.776       
       232.30814             29.1171               10.745       
       233.46969             29.1314               10.714       
       234.63703             29.1452               10.684       
       235.81022             29.1585               10.654       
       236.98927             29.1712               10.625       
       238.17422             29.1834               10.596       
       239.36509             29.1951               10.567       
       240.56191             29.2061               10.538       
       241.76472             29.2165               10.51        
       242.97355             29.2263               10.482       
       244.18841             29.2354               10.455       
       245.40936             29.2439               10.427       
        246.6364             29.2516                10.4        
       247.86959             29.2585               10.374       
       249.10893             29.2647               10.347       
       250.35448             29.2701               10.321       
       251.60625             29.2746               10.296       
       252.86428             29.2781               10.27        
        254.1286             29.2807               10.245       
       255.39925             29.2823               10.22        
       256.67624             29.2828               10.196       
       257.95962             29.2821               10.172       
       259.24942             29.2802               10.148       
       260.54567             29.2768               10.124       
        261.8484              29.272               10.101       
       263.15764             29.2656               10.078       
       264.47343             29.2574               10.056       
       265.79579             29.2471               10.033       
       267.12477             29.2346               10.011       
        268.4604             29.2196               9.9898       
        269.8027             29.2016               9.9686       
       271.15171             29.1802               9.9476       
       272.50747             29.1547               9.927        
       273.87001             29.1243               9.9068       
       275.23936             29.0876               9.8868       
       276.61556              29.043               9.8672       
       277.99863             28.9877               9.848        
       279.38863              28.917               9.829        
       280.78557             28.8223               9.8104       
        282.1895             28.6841               9.7922       
       283.60044             28.4403               9.7743       
        284.7492             27.8284                9.76        
       285.01845             26.8959               10.88        
        285.2508              27.829               10.878       
       286.44354             28.4574               10.867       
       287.87576             28.7078               10.854       
       289.31514             28.8569               10.842       
       290.76171              28.964               10.83        
       292.21552             29.0477               10.819       
        293.6766             29.1163               10.807       
       295.14498              29.174               10.797       
       296.62071             29.2234               10.786       
       298.10381             29.2659               10.776       
       299.59433             29.3022               10.766       
        301.0923             29.3327               10.757       
       302.59776             29.3572               10.748       
       304.11075             29.3748               10.739       
        305.6313             29.3832               10.731       
       307.15946              29.377               10.723       
       308.69526             29.3374               10.715       
        309.8867             29.1967               10.71        
       310.23873             28.9823               11.041       
       310.51331             29.2097               11.04        
       311.78993             29.4082               11.036       
       313.34888             29.5122               11.031       
       314.91562             29.5859               11.027       
        316.4902             29.6467               11.022       
       318.07265             29.7001               11.018       
       319.66301             29.7486               11.015       
       321.26133             29.7936               11.011       
       322.86764             29.8359               11.008       
       324.48197             29.8761               11.006       
