# Tl
# Form Factors from Chantler Tables
# DOI: https://dx.doi.org/10.18434/T4HS32
# automatically retrived 2019-02-28 using URL https://physics.nist.gov/cgi-bin/ffast/ffast.pl

# For f_rel the second term, which is 3/5th of the Cromer-Liberman value, is used as suggested by Chantler.
# Real and imaginary part of the formfactors are: f'(E)=f1(E)+f_rel+f_NT and f''(E)=f2(E)
# see also original publication:  https://doi.org/10.1063/1.555974

# Z = 81
# f_rel = -1.0794 e/atom  (Relativistic correction estimate)
# f_NT = -0.01761 e/atom (Nuclear Thomson correction)


#        E (eV)            f1 (e/atom)          f2 (e/atom)     
        9.471535             2.89482                0.0         
        9.616508             2.43653                0.0         
        9.655167             1.93601                0.0         
        9.713156             2.41962              0.95738       
        9.858128             2.80732              0.94093       
         10.69               3.01632              0.85572       
        11.42761             2.81513              0.76359       
        12.21612             2.31826              0.64656       
         12.838              1.41314              0.55653       
        13.0345              0.479375             0.52967       
        13.05903             0.170913             0.52639       
        13.0869             -0.576446             0.52267       
        13.1655              0.48965               2.5504       
         13.362              1.35585               2.4444       
        13.9601              1.81934               2.1538       
        14.92335             1.26447               1.8083       
         14.994              1.16047               1.7938       
        15.2235              0.544732              1.7565       
        15.2847             -0.0942078             1.7489       
        15.3765              0.491862              2.9353       
         15.606              0.917787              2.8917       
        15.95306             1.01599               2.8481       
        17.05382             0.615267              2.8623       
        18.23053            -0.211345              3.1946       
        19.48844             -1.22195              3.8982       
        20.83314             -2.31842              5.0236       
        22.27063             -3.38921              6.6455       
        23.8073              -4.27166              8.8266       
        25.45001             -4.7481               11.575       
        27.20606             -4.56925              14.806       
        29.08327             -3.50478              18.312       
        31.09002             -1.40836              21.773       
        33.23523               1.72                 24.8        
        35.52846             5.70679               27.017       
        37.97993             10.2244               28.143       
        40.60054             14.8506               28.061       
        43.40198              19.178               26.836       
        46.39671             22.8632               24.683       
        49.59809             25.6983               21.909       
        53.02035             27.6143               18.838       
        56.67876             28.6585               15.762       
        60.58959             28.9544               12.896       
        64.77028             28.6433               10.368       
        69.23942             27.8132               8.2343       
         73.892              26.1391               6.5313       
        74.01695             26.0553               6.4917       
         75.023              24.8949               6.1837       
        75.3246              23.5501               6.0949       
         75.777              24.8694               8.5263       
         76.908              25.9023               8.1044       
        79.12411             26.3345               7.353        
        84.58368             26.1109               5.8588       
        90.41995             25.3542               4.707        
        96.65893             24.1818               3.8281       
         97.608               23.908               3.7182       
         99.102              23.1352               3.5558       
        99.5004              22.3738               3.5146       
        100.098              23.0489               4.8603       
        101.592              23.5242               4.685        
        103.3284             23.6206               4.4954       
        110.4581             23.2784               3.8498       
         116.13              22.6952               3.4384       
        117.9075             22.3619               3.3227       
        118.0797             22.3037               3.3118       
        118.3815             22.1224               3.2929       
        119.0925             22.2329               3.6236       
        120.344              22.2225               3.5593       
         120.87              22.1855               3.5332       
        122.186              22.0234                3.47        
        122.6772             21.8574               3.4473       
        123.414              21.9417               3.6815       
        125.256              21.9267               3.615        
        126.2272             21.8818               3.5824       
        133.574              21.3523               3.3886       
        134.9368             21.2226               3.3636       
        135.6185             21.1444               3.3524       
        136.1637             21.0446               3.3441       
        136.9815             21.0336               3.4424       
        139.026              20.9125               3.4222       
        144.2475             20.5035               3.4079       
        154.2005             19.6476               3.5226       
        164.8404             18.7015               3.8405       
        176.2144             17.6979               4.3944       
        188.3732             16.6756               5.2206       
        201.3709             15.6886               6.3526       
        215.2655             14.8088               7.8117       
        230.1188             14.1292               9.5974       
        245.997               13.729               11.679       
        262.9708             13.7031               14.004       
        281.1158             14.1194               16.464       
        300.5128             15.0075               18.944       
        321.2482             16.3534               21.308       
        343.4143             18.0811               23.426       
        367.1099             20.0316               25.189       
        378.476              20.8453               25.854       
        384.269              21.0185               26.15        
        385.8138             20.7765               26.224       
        388.131              21.3155               27.056       
        392.4405             21.9191               27.282       
        393.924              22.0824               27.357       
        398.468              22.5239               27.576       
        404.567              22.9375               27.848       
        406.1934             22.8421               27.916       
        408.633               23.332               28.524       
        414.732              24.1478               28.789       
        419.5189             24.6859               28.983       
        448.4657             27.6204               29.895       
        479.4098             30.4932               30.414       
         500.0               33.7172               30.527       
         502.5               33.9239               30.529       
        505.0125             34.1295               30.528       
       507.53756              34.334               30.526       
       510.07525             34.5374               30.52        
       512.62563             34.7395               30.513       
       515.18875             34.9403               30.503       
        517.7647             35.1398               30.492       
       520.35352             35.3378               30.478       
       522.95529             35.5342               30.461       
       525.57007             35.7291               30.443       
       528.19792             35.9224               30.423       
       530.83891             36.1139                30.4        
        533.4931             36.3036               30.376       
       536.16057             36.4913               30.35        
       538.84137             36.6771               30.321       
       541.53558             36.8607               30.291       
       544.24325             37.0422               30.259       
       546.96447             37.2213               30.225       
       549.69929             37.3979               30.189       
       552.44779              37.572               30.152       
       555.21003             37.7432               30.112       
       557.98608             37.9115               30.071       
       560.77601             38.0766               30.029       
       563.57989             38.2382               29.984       
       566.39779             38.3961               29.938       
       569.22978             38.5499               29.891       
       572.07593             38.6992               29.842       
        574.9363             38.8434               29.791       
       577.81099             38.9818               29.739       
       580.70004             39.1136               29.685       
       583.60354             39.2376               29.63        
       586.52156             39.3521               29.574       
       589.45417              39.455               29.516       
       592.40144             39.5428               29.457       
       595.36345              39.61                29.397       
       598.34026             39.6471               29.335       
       601.33196              39.635               29.272       
       604.33862             39.5249               29.208       
       607.36032             39.0999               29.143       
       608.24487             38.7065               29.124       
       609.75519             38.7907               30.886       
       610.39712             39.1779               30.873       
        613.4491             40.0086               30.808       
       616.51635             40.4763               30.742       
       619.59893             40.8395               30.675       
       622.69693             41.1516               30.608       
       625.81041             41.4328               30.539       
       628.93946             41.6931               30.469       
       632.08416             41.9381               30.398       
       635.24458             42.1712               30.326       
        638.4208             42.3947               30.254       
       641.61291             42.6102               30.18        
       644.82097             42.8189               30.106       
       648.04508             43.0216               30.03        
        651.2853              43.219               29.955       
       654.54173             43.4115               29.878       
       657.81444             43.5996                29.8        
       661.10351             43.7836               29.722       
       664.40903             43.9636               29.643       
       667.73107              44.14                29.564       
       671.06973             44.3127               29.484       
       674.42508              44.482               29.403       
        677.7972             44.6479               29.321       
       681.18619             44.8103               29.239       
       684.59212             44.9692               29.156       
       688.01508             45.1245               29.073       
       691.45515              45.276               28.989       
       694.91243             45.4234               28.905       
       698.38699             45.5663               28.82        
       701.87893              45.704               28.734       
       705.38832             45.8352               28.648       
       708.91526             45.9578               28.562       
       712.45984             46.0675               28.475       
       716.02214             46.1526               28.387       
       719.60225             46.1582               28.299       
       720.29019             46.1213               28.283       
       722.30983             46.2022               28.625       
       723.20026             46.3166               28.604       
       726.81626             46.5926               28.517       
       730.45034             46.7975               28.43        
        734.1026             46.9796               28.343       
       737.77311             47.1495               28.255       
       741.46197             47.3115               28.167       
       745.16928             47.4676               28.079       
       748.89513              47.619               27.99        
       752.63961             47.7665               27.901       
        756.4028             47.9105               27.812       
       760.18482             48.0514               27.723       
       763.98574             48.1893               27.633       
       767.80567             48.3245               27.543       
        771.6447             48.4571               27.454       
       775.50292             48.5871               27.363       
       779.38044             48.7147               27.273       
       783.27734             48.8397               27.183       
       787.19373             48.9622               27.092       
       791.12969             49.0822               27.002       
       795.08534             49.1996               26.911       
       799.06077             49.3142               26.82        
       803.05607              49.426               26.729       
       807.07135             49.5346               26.638       
       811.10671             49.6398               26.547       
       815.16224              49.741               26.456       
       819.23806             49.8375               26.364       
       823.33425             49.9282               26.273       
       827.45092             50.0114               26.182       
       831.58817             50.0836               26.091       
       835.74611             50.1381               25.999       
       839.92484             50.1557               25.908       
       844.12447             50.0257               25.817       
       844.23174             50.0145               25.814       
       846.76824              50.082               26.306       
       848.34509             50.2642               26.272       
       852.58682             50.5341               26.181       
       856.84975             50.7262               26.091       
        861.134               50.891                26.0        
       865.43967             51.0413               25.909       
       869.76687             51.1825               25.819       
        874.1157             51.3172               25.728       
       878.48628             51.4469               25.638       
       882.87871             51.5726               25.548       
        887.2931              51.695               25.458       
       891.72957             51.8146               25.368       
       896.18822             51.9317               25.278       
       900.66916             52.0466               25.188       
        905.1725             52.1595               25.098       
       909.69837             52.2707               25.008       
       914.24686             52.3801               24.919       
       918.81809             52.4881               24.829       
       923.41218             52.5947               24.74        
       928.02924             52.6999               24.651       
       932.66939              52.804               24.562       
       937.33274             52.9069               24.473       
        942.0194             53.0088               24.385       
        946.7295             53.1098               24.296       
       951.46315              53.21                24.208       
       956.22046             53.3094               24.12        
       961.00156             53.4082               24.032       
       965.80657             53.5067               23.944       
        970.6356             53.6049               23.856       
       975.48878             53.7032               23.769       
       980.36623             53.8019               23.681       
       985.26806             53.9017               23.594       
        990.1944             54.0034               23.507       
       995.14537             54.1085               23.421       
       1000.1211             54.2213               23.333       
       1005.1217             54.3845               23.209       
       1010.1473             54.5337               23.086       
        1015.198             54.6718               22.963       
        1020.274             54.8005               22.842       
       1025.3754             54.9214               22.721       
       1030.5023             55.0355                22.6        
       1035.6548             55.1433               22.478       
       1040.8331             55.2457               22.357       
       1046.0372             55.3432               22.237       
       1051.2674             55.4362               22.118       
       1056.5238             55.5253               21.999       
       1061.8064             55.6107               21.881       
       1067.1154             55.6928               21.764       
        1072.451             55.7717               21.648       
       1077.8132             55.8478               21.532       
       1083.2023             55.9211               21.417       
       1088.6183             55.9919               21.302       
       1094.0614             56.0603               21.189       
       1099.5317             56.1265               21.076       
       1105.0294             56.1905               20.963       
       1110.5545             56.2524               20.852       
       1116.1073             56.3125               20.741       
       1121.6878             56.3706               20.63        
       1127.2963              56.427               20.521       
       1132.9328             56.4816               20.412       
       1138.5974             56.5346               20.303       
       1144.2904              56.586               20.196       
       1150.0119             56.6359               20.089       
       1155.7619             56.6843               19.982       
       1161.5407             56.7299               19.877       
       1167.3484             56.7756               19.772       
       1173.1852              56.82                19.667       
       1179.0511              56.863               19.563       
       1184.9464             56.9047               19.46        
       1190.8711             56.9452               19.358       
       1196.8254             56.9846               19.256       
       1202.8096             57.0227               19.155       
       1208.8236             57.0598               19.054       
       1214.8677             57.0957               18.954       
       1220.9421             57.1319               18.854       
       1227.0468             57.1656               18.755       
        1233.182              57.198               18.655       
       1239.3479             57.2294               18.557       
