# Tm
# Form Factors from Chantler Tables
# DOI: https://dx.doi.org/10.18434/T4HS32
# automatically retrived 2019-02-28 using URL https://physics.nist.gov/cgi-bin/ffast/ffast.pl

# For f_rel the second term, which is 3/5th of the Cromer-Liberman value, is used as suggested by Chantler.
# Real and imaginary part of the formfactors are: f'(E)=f1(E)+f_rel+f_NT and f''(E)=f2(E)
# see also original publication:  https://doi.org/10.1063/1.555974

# Z = 69
# f_rel = -0.7224 e/atom  (Relativistic correction estimate)
# f_NT = -0.01546 e/atom (Nuclear Thomson correction)


#        E (eV)            f1 (e/atom)          f2 (e/atom)     
         5.194               10.5318                0.0         
         5.2735              10.4639                0.0         
         5.2947              10.3894                0.0         
         5.3265              10.4604              0.14292       
         5.406               10.5184              0.14344       
         10.69               10.2397              0.25905       
        11.42761              10.162              0.28489       
        12.21612             10.0721              0.31469       
        13.05903              9.9679               0.349        
        13.9601              9.84691              0.38849       
        14.92335             9.70585               0.4339       
        15.95306             10.2087              0.48611       
        17.05382             10.0135              0.54609       
        18.23053             9.78076              0.61496       
        19.48844             9.49946               0.694        
        20.83314             9.15334               0.7846       
        22.27063             8.71683              0.88828       
        23.8073              8.14646               1.0065       
        25.45001              7.361                1.1409       
        27.20606             6.18552               1.2935       
        29.08327             4.13989               1.4661       
        31.09002             -1.07371              1.6608       
         31.654              -4.94686              1.7174       
        32.1385              -14.4758              1.7665       
        32.2677              -26.4192              1.7797       
        32.4615              -13.2016              25.575       
         32.946              -1.50865              24.276       
        33.23523             1.71508               23.547       
        35.52846             12.0535               18.798       
        37.97993             15.6441               15.152       
        40.60054             17.0816               12.365       
        43.40198             17.5084               10.336       
        46.39671             17.4405               8.9323       
        49.59809             17.1456               8.0236       
         52.136              16.8602               7.6007       
         52.934              16.7592               7.5087       
        53.02035             16.7457               7.4997       
        53.1468              16.7187               7.487        
         53.466              16.7026               7.4917       
         54.264              16.6351               7.4271       
        56.67876             16.4141               7.3118       
        60.58959             16.1064               7.3198       
        64.77028             15.8667               7.5089       
        69.23942             15.7111               7.8428       
        74.01695             15.6505               8.2953       
        79.12411             15.6952               8.8472       
        84.58368             15.8582               9.4845       
        90.41995             16.1588               10.197       
        96.65893             16.6281               10.976       
         100.0                19.091               11.363       
         100.5               19.1424               11.39        
        101.0025             19.1938               11.416       
       101.50751             19.2449               11.443       
       102.01505              19.296               11.469       
       102.52513              19.347               11.495       
       103.03775             19.3979               11.521       
       103.55294             19.4486               11.547       
        104.0707             19.4993               11.573       
       104.59106              19.55                11.598       
       105.11401             19.6005               11.624       
       105.63958              19.651               11.649       
       106.16778             19.7015               11.674       
       106.69862             19.7519               11.699       
       107.23211             19.8022               11.723       
       107.76827             19.8525               11.747       
       108.30712             19.9028               11.772       
       108.84865              19.953               11.796       
       109.39289             20.0032               11.819       
       109.93986             20.0533               11.843       
       110.48956             20.1034               11.866       
       111.04201             20.1535               11.89        
       111.59722             20.2035               11.912       
        112.1552             20.2535               11.935       
       112.71598             20.3035               11.958       
       113.27956             20.3534               11.98        
       113.84596             20.4033               12.002       
       114.41519             20.4531               12.024       
       114.98726             20.5029               12.045       
        115.5622             20.5526               12.067       
       116.14001             20.6023               12.088       
       116.72071             20.6519               12.109       
       117.30431             20.7014               12.129       
       117.89083             20.7509               12.149       
       118.48029             20.8003               12.17        
       119.07269             20.8496               12.189       
       119.66805             20.8989               12.209       
       120.26639              20.948               12.228       
       120.86772             20.9971               12.247       
       121.47206              21.046               12.266       
       122.07942             21.0948               12.285       
       122.68982             21.1436               12.303       
       123.30327             21.1921               12.321       
       123.91979             21.2406               12.338       
       124.53939             21.2889               12.356       
       125.16208              21.337               12.373       
       125.78789              21.385               12.39        
       126.41683             21.4328               12.406       
       127.04892             21.4804               12.423       
       127.68416             21.5278               12.439       
       128.32258              21.575               12.454       
       128.96419             21.6219               12.47        
       129.60902             21.6686               12.485       
       130.25706             21.7151                12.5        
       130.90835             21.7612               12.514       
       131.56289             21.8071               12.528       
        132.2207             21.8527               12.542       
       132.88181              21.898               12.556       
       133.54621             21.9429               12.569       
       134.21395             21.9874               12.582       
       134.88502             22.0316               12.595       
       135.55944             22.0753               12.607       
       136.23724             22.1187               12.619       
       136.91842             22.1615               12.631       
       137.60302             22.2039               12.643       
       138.29103             22.2458               12.654       
       138.98249             22.2871               12.665       
        139.6774             22.3279               12.675       
       140.37579              22.368               12.685       
       141.07766             22.4075               12.695       
       141.78305             22.4464               12.705       
       142.49197             22.4845               12.714       
       143.20443             22.5218               12.723       
       143.92045             22.5583               12.731       
       144.64005              22.594               12.74        
       145.36325             22.6288               12.748       
       146.09007             22.6625               12.755       
       146.82052             22.6953               12.762       
       147.55462             22.7269               12.769       
       148.29239             22.7573               12.776       
       149.03386             22.7865               12.782       
       149.77903             22.8143               12.788       
       150.52792             22.8407               12.794       
       151.28056             22.8655               12.799       
       152.03696             22.8887               12.804       
       152.79715             22.9101               12.809       
       153.56113             22.9295               12.813       
       154.32894             22.9469               12.817       
       155.10058              22.962               12.821       
       155.87609             22.9747               12.824       
       156.65547             22.9847               12.827       
       157.43875             22.9918               12.829       
       158.22594             22.9957               12.832       
       159.01707             22.9962               12.834       
       159.81215             22.9944               12.835       
       160.61121             22.9868               12.836       
       161.41427             22.9746               12.837       
       162.22134             22.9572               12.838       
       163.03245              22.934               12.838       
       163.84761             22.9042               12.838       
       164.66685             22.8671               12.838       
       165.49018             22.8215               12.837       
       166.31763             22.7663               12.836       
       167.14922               22.7                12.834       
       167.98497             22.6207               12.832       
       168.82489             22.5262               12.83        
       169.66902             22.4134               12.828       
       170.51736             22.2785               12.825       
       171.36995             22.1165               12.822       
        172.2268             21.9205               12.819       
       173.08793             21.6808               12.815       
       173.95337             21.3833               12.811       
       174.82314              21.006               12.806       
       175.69726              20.513               12.801       
       176.57574             19.8386               12.796       
       177.45862              18.845               12.791       
       178.34591             17.1548               12.785       
       179.23764             12.7504               12.779       
       179.46997             8.81247               12.777       
       179.49044             8.13869               12.777       
       179.70956             8.41529               25.45        
       179.73003             9.13343               25.435       
       180.13383             15.2124               25.131       
        181.0345             19.7264               24.482       
       181.93967             22.0462               23.866       
       182.84937             23.6141               23.281       
       183.76362             24.7851               22.726       
       184.68244             25.7057               22.199       
       185.60585             26.4522               21.699       
       186.53388              27.07                21.224       
       187.46655             27.5885               20.772       
       188.40388             28.0278               20.344       
        189.3459             28.4029               19.937       
       190.29263             28.7246               19.55        
       191.24409             29.0014               19.183       
       192.20031             29.2401               18.833       
       193.16131             29.4459               18.501       
       194.12712             29.6232               18.186       
       195.09776             29.7754               17.886       
       196.07325             29.9052                17.6        
       197.05361             30.0149               17.329       
       198.03888             30.1058               17.071       
       199.02907             30.1799               16.83        
       200.02422             30.2412               16.607       
       201.02434             30.2925                16.4        
       202.02946             30.3359               16.207       
       203.03961             30.3731               16.027       
       204.05481             30.4052               15.858       
       205.07508             30.4334               15.701       
       206.10046             30.4584               15.554       
       207.13096             30.4808               15.415       
       208.16661             30.5012               15.285       
       209.20745              30.52                15.163       
       210.25348             30.5376               15.048       
       211.30475             30.5542               14.939       
       212.36128             30.5702               14.836       
       213.42308             30.5857               14.738       
        214.4902             30.6009               14.646       
       215.56265             30.6158               14.558       
       216.64046             30.6307               14.475       
       217.72366             30.6456               14.395       
       218.81228             30.6606               14.319       
       219.90634             30.6758               14.247       
       221.00588             30.6911               14.177       
        222.1109             30.7066               14.111       
       223.22146             30.7224               14.047       
       224.33757             30.7384               13.986       
       225.45925             30.7547               13.927       
       226.58655             30.7713               13.87        
       227.71948             30.7881               13.816       
       228.85808             30.8053               13.763       
       230.00237             30.8227               13.712       
       231.15238             30.8403               13.663       
       232.30814             30.8582               13.615       
       233.46969             30.8763               13.569       
       234.63703             30.8947               13.524       
       235.81022             30.9133               13.481       
       236.98927              30.932               13.438       
       238.17422              30.951               13.397       
       239.36509             30.9701               13.357       
       240.56191             30.9894               13.318       
       241.76472             31.0088               13.28        
       242.97355             31.0283               13.242       
       244.18841             31.0479               13.206       
       245.40936             31.0676               13.17        
        246.6364             31.0873               13.135       
       247.86959             31.1071               13.101       
       249.10893             31.1269               13.068       
       250.35448             31.1468               13.035       
       251.60625             31.1666               13.003       
       252.86428             31.1864               12.971       
        254.1286             31.2062               12.94        
       255.39925             31.2259               12.909       
       256.67624             31.2455               12.879       
       257.95962              31.265               12.85        
       259.24942             31.2845               12.821       
       260.54567             31.3038               12.792       
        261.8484             31.3229               12.764       
       263.15764              31.342               12.737       
       264.47343             31.3608               12.709       
       265.79579             31.3795               12.683       
       267.12477             31.3979               12.656       
        268.4604             31.4162               12.63        
        269.8027             31.4342               12.604       
       271.15171             31.4519               12.579       
       272.50747             31.4694               12.554       
       273.87001             31.4866               12.529       
       275.23936             31.5035               12.505       
       276.61556              31.52                12.481       
       277.99863             31.5363               12.457       
       279.38863             31.5521               12.434       
       280.78557             31.5676               12.411       
        282.1895             31.5827               12.388       
       283.60044             31.5973               12.366       
       285.01845             31.6115               12.344       
       286.44354             31.6252               12.322       
       287.87576             31.6384               12.301       
       289.31514             31.6511               12.279       
       290.76171             31.6632               12.258       
       292.21552             31.6747               12.238       
        293.6766             31.6856               12.217       
       295.14498             31.6958               12.197       
       296.62071             31.7053               12.178       
       298.10381             31.7141               12.158       
       299.59433              31.722               12.139       
        301.0923              31.729               12.12        
       302.59776             31.7351               12.101       
       304.11075             31.7401               12.083       
        305.6313              31.744               12.065       
       307.15946             31.7468               12.047       
       308.69526             31.7481               12.029       
       310.23873              31.748               12.012       
       311.78993             31.7462               11.995       
       313.34888             31.7426               11.979       
       314.91562             31.7369               11.962       
        316.4902             31.7288               11.946       
       318.07265             31.7179               11.93        
       319.66301             31.7038               11.915       
       321.26133             31.6858                11.9        
       322.86764             31.6631               11.885       
       324.48197             31.6346               11.87        
       326.10438             31.5986               11.856       
       327.73491             31.5527               11.842       
       329.37358             31.4927               11.828       
       331.02045             31.4116               11.814       
       332.67555             31.2942               11.801       
       334.33893             31.0997               11.788       
       336.01062             30.6005               11.775       
