# W
# Form Factors from Chantler Tables
# DOI: https://dx.doi.org/10.18434/T4HS32
# automatically retrived 2019-02-27 using URL https://physics.nist.gov/cgi-bin/ffast/ffast.pl
#
# Z = 74
# f_rel = -1.4515 e/atom  (Relativistic correction estimate)
# f_NT = -0.01634 e/atom (Nuclear Thomson correction)


#        E (eV)            f1 (e/atom)          f2 (e/atom)     
         5.978                6.6566                0.0         
         6.0695              6.08378                0.0         
         6.0939              5.43188                0.0         
         6.1305              6.07665               1.264        
         6.222               6.61931               1.2569       
         10.69               6.56496               2.8092       
        11.42761             6.58098               3.3151       
        12.21612             6.68973               3.8688       
        13.05903             6.90985               4.4462       
        13.9601              7.25243               5.0157       
        14.92335              7.7179               5.5412       
        15.95306             8.29414               5.9859       
        17.05382             8.95658               6.3173       
        18.23053             9.67031               6.5117       
        19.48844             10.4305               6.5573       
        20.83314             11.1203               6.455        
        22.27063             11.7349               6.2179       
        23.8073              12.2377               5.8684       
        25.45001             12.5975               5.4333       
        27.20606             12.7802               4.9392       
        29.08327             12.7425               4.4187       
        31.09002              12.396               3.8996       
         32.928              11.6002                3.47        
        33.23523             11.3527               3.4028       
         33.432              11.1252               3.3604       
        33.5664              10.8065               3.3318       
         33.768              10.9013               3.7405       
         34.272              10.6426               3.6194       
         34.888              9.79398               3.4773       
         35.422              7.64986               3.3593       
        35.52846             6.18367               3.3363       
        35.5644              5.04927               3.3286       
         35.77               7.68767               8.4061       
         35.778               7.7649               8.4024       
        36.3175               10.058               8.1578       
        36.4635              10.2313               8.0933       
        36.6825              10.7991               8.3052       
         37.23               11.6701               8.0634       
        37.97993              12.399               7.7505       
        40.60054             13.6087               6.7833       
        43.40198             13.8839               5.8781       
         45.864              13.1951               5.204        
        46.39671             12.5737               5.0734       
         46.566              12.1538               5.033        
        46.7532              10.8814               4.9889       
         47.034              12.2052               7.4381       
         47.736              13.3694               7.2554       
        49.59809             14.3109               6.8159       
        53.02035             14.9342               6.1523       
        56.67876              15.154               5.5407       
        60.58959              15.105               5.0115       
        64.77028             14.8547               4.6086       
        69.23942              14.455               4.3611       
        74.01695             13.9447               4.2864       
         75.558              13.7648               4.2998       
        76.7145              13.6117               4.3209       
        77.0229              13.5465               4.3281       
        77.4855              13.5269               4.4018       
         78.642              13.4278               4.4392       
        79.12411             13.3807               4.4574       
        84.58368             12.8282               4.7586       
        90.41995             12.2717               5.2496       
        96.65893             11.7538               5.9297       
         100.0               13.0562               6.3475       
         100.5               13.0233               6.4128       
        101.0025             12.9096               6.4792       
       101.50751             12.8777               6.5465       
       102.01505             12.8465               6.6148       
       102.52513             12.8158               6.6841       
       103.03775             12.7857               6.7544       
       103.55294             12.7562               6.8257       
        104.0707             12.7273               6.8979       
       104.59106              12.699               6.9712       
       105.11401             12.6714               7.0454       
       105.63958             12.6445               7.1206       
       106.16778             12.6183               7.1967       
       106.69862             12.5927               7.2738       
       107.23211             12.5679               7.3518       
       107.76827             12.5437               7.4307       
       108.30712             12.5204               7.5106       
       108.84865             12.4977               7.5914       
       109.39289             12.4759               7.6732       
       109.93986             12.3657               7.7558       
       110.48956             12.3454               7.8393       
       111.04201             12.3259               7.9238       
       111.59722             12.3073               8.0091       
        112.1552             12.2895               8.0953       
       112.71598             12.2726               8.1823       
       113.27956             12.2565               8.2703       
       113.84596             12.2414               8.359        
       114.41519             12.2271               8.4486       
       114.98726             12.2137               8.5396       
        115.5622             12.2013               8.6315       
       116.14001             12.1899               8.7242       
       116.72071             12.1794               8.8177       
       117.30431              12.17                8.912        
       117.89083             12.1616               9.007        
       118.48029             12.1542               9.1028       
       119.07269             12.1478               9.1994       
       119.66805             12.1426               9.2967       
       120.26639             12.1384               9.3948       
       120.86772             12.1352               9.4935       
       121.47206             12.1332               9.593        
       122.07942             12.1323               9.6932       
       122.68982             12.1325               9.794        
       123.30327             12.1339               9.8955       
       123.91979             12.1364               9.9977       
       124.53939             12.1401                10.1        
       125.16208              12.145               10.204       
       125.78789             12.1511               10.308       
       126.41683             12.1584               10.413       
       127.04892              12.167               10.518       
       127.68416             12.1768               10.624       
       128.32258             12.1878               10.73        
       128.96419             12.2002               10.837       
       129.60902             12.2138               10.944       
       130.25706             12.2287               11.052       
       130.90835              12.245               11.161       
       131.56289             12.2626               11.269       
        132.2207             12.2816               11.379       
       132.88181             12.3019               11.489       
       133.54621             12.3237               11.599       
       134.21395             12.3468               11.709       
       134.88502             12.3714               11.82        
       135.55944             12.3974               11.932       
       136.23724             12.4248               12.043       
       136.91842             12.4537               12.155       
       137.60302              12.484               12.266       
       138.29103             12.5158               12.378       
       138.98249             12.5489               12.49        
        139.6774             12.5835               12.602       
       140.37579             12.6195               12.714       
       141.07766             12.6583               12.826       
       141.78305             12.6972               12.938       
       142.49197             12.7375               13.05        
       143.20443             12.7792               13.162       
       143.92045             12.8224               13.274       
       144.64005              12.867               13.386       
       145.36325              12.913               13.498       
       146.09007             12.9605               13.61        
       146.82052             13.0094               13.722       
       147.55462             13.0597               13.833       
       148.29239             13.1114               13.944       
       149.03386             13.1645               14.055       
       149.77903              13.219               14.165       
       150.52792             13.2749               14.275       
       151.28056             13.3321               14.385       
       152.03696             13.3907               14.494       
       152.79715             13.4505               14.603       
       153.56113             13.5117               14.711       
       154.32894             13.5742               14.819       
       155.10058             13.6379               14.927       
       155.87609              13.703               15.034       
       156.65547             13.7692               15.14        
       157.43875             13.8367               15.246       
       158.22594             13.9054               15.352       
       159.01707             13.9754               15.456       
       159.81215             14.0465               15.561       
       160.61121             14.1188               15.664       
       161.41427             14.1922               15.767       
       162.22134             14.2668               15.87        
       163.03245             14.3426               15.972       
       163.84761             14.4194               16.073       
       164.66685             14.4973               16.173       
       165.49018             14.5763               16.273       
       166.31763             14.6564               16.372       
       167.14922             14.7375               16.471       
       167.98497             14.8197               16.568       
       168.82489             14.9029               16.665       
       169.66902              14.987               16.761       
       170.51736             15.0721               16.857       
       171.36995             15.1582               16.952       
        172.2268             15.2453               17.045       
       173.08793             15.3332               17.138       
       173.95337             15.4221               17.231       
       174.82314             15.5118               17.322       
       175.69726             15.6025               17.413       
       176.57574             15.6939               17.503       
       177.45862             15.7862               17.591       
       178.34591             15.8794               17.679       
       179.23764             15.9733               17.767       
       180.13383             16.0679               17.853       
        181.0345             16.1634               17.938       
       181.93967             16.2595               18.023       
       182.84937             16.3564               18.106       
       183.76362              16.454               18.189       
       184.68244             16.5522               18.271       
       185.60585             16.6511               18.352       
       186.53388             16.7507               18.432       
       187.46655             16.8508               18.511       
       188.40388             16.9515               18.589       
        189.3459             17.0528               18.666       
       190.29263             17.1547               18.742       
       191.24409              17.257               18.817       
       192.20031             17.3599               18.891       
       193.16131             17.4633               18.965       
       194.12712             17.5671               19.037       
       195.09776             17.6713               19.108       
       196.07325              17.776               19.179       
       197.05361              17.881               19.248       
       198.03888             17.9864               19.316       
       199.02907             18.0922               19.384       
       200.02422             18.1983               19.45        
       201.02434             18.3046               19.516       
       202.02946             18.4112               19.58        
       203.03961             18.5181               19.643       
       204.05481             18.6251               19.706       
       205.07508             18.7324               19.767       
       206.10046             18.8398               19.828       
       207.13096             18.9473               19.887       
       208.16661             19.0549               19.946       
       209.20745             19.1626               20.003       
       210.25348             19.2702               20.06        
       211.30475             19.3779               20.115       
       212.36128             19.4855               20.17        
       213.42308             19.5931               20.223       
        214.4902             19.7004               20.276       
       215.56265             19.8077               20.327       
       216.64046             19.9147               20.378       
       217.72366             20.0214               20.427       
       218.81228             20.1277               20.476       
       219.90634             20.2337               20.524       
       221.00588             20.3392               20.57        
        222.1109             20.4442               20.616       
       223.22146             20.5485               20.661       
       224.33757             20.6521               20.704       
       225.45925             20.7549               20.747       
       226.58655             20.8567               20.789       
       227.71948             20.9573               20.83        
       228.85808             21.0567               20.87        
       230.00237             21.1545               20.909       
       231.15238             21.2506               20.947       
       232.30814             21.3466               20.984       
       233.46969             21.4379               21.02        
       234.63703             21.5261               21.056       
       235.81022             21.6104               21.09        
       236.98927             21.6897               21.124       
       238.17422             21.7625               21.156       
       239.36509             21.8262               21.188       
       240.56191             21.8767               21.219       
       241.76472             21.9062               21.249       
       242.97355             21.8968               21.278       
       244.18841             21.7913               21.306       
       245.21055              21.276               21.328       
       245.40936             20.2858               22.386       
       245.58945             21.3122               22.389       
        246.6364             22.0383               22.404       
       247.86959             22.3776               22.417       
       249.10893             22.6171               22.428       
       250.35448             22.8125               22.439       
       251.60625             22.9801               22.449       
       252.86428             23.1256               22.457       
        254.1286             23.2494               22.465       
       255.39925             23.3463               22.471       
       256.67624             23.3987               22.476       
       257.95962             23.3312               22.48        
       258.59581             23.0534               22.481       
       259.00419             23.1065               23.281       
       259.24942             23.3386               23.281       
       260.54567             23.8455               23.279       
        261.8484             24.1448               23.275       
       263.15764              24.39                23.271       
       264.47343             24.6085               23.265       
       265.79579             24.8106               23.258       
       267.12477             25.0014               23.251       
        268.4604             25.1835               23.242       
        269.8027             25.3587               23.232       
       271.15171             25.5282               23.222       
       272.50747             25.6928               23.21        
       273.87001             25.8531               23.199       
       275.23936             26.0099               23.186       
       276.61556             26.1634               23.173       
       277.99863              26.314               23.16        
       279.38863             26.4619               23.145       
       280.78557             26.6073               23.13        
        282.1895             26.7504               23.115       
       283.60044             26.8914               23.099       
       285.01845             27.0301               23.082       
       286.44354             27.1668               23.065       
       287.87576             27.3016               23.048       
       289.31514             27.4346               23.03        
       290.76171              27.566               23.012       
       292.21552             27.6959               22.994       
        293.6766             27.8244               22.975       
       295.14498             27.9514               22.957       
       296.62071             28.0772               22.938       
       298.10381             28.2017               22.918       
       299.59433              28.325               22.898       
        301.0923             28.4471               22.878       
       302.59776             28.5681               22.858       
       304.11075             28.6879               22.837       
        305.6313             28.8067               22.816       
       307.15946             28.9245               22.795       
       308.69526             29.0412               22.774       
       310.23873             29.1569               22.752       
       311.78993             29.2715               22.729       
       313.34888             29.3853               22.707       
       314.91562              29.498               22.684       
        316.4902             29.6098               22.661       
       318.07265             29.7206               22.638       
       319.66301             29.8305               22.614       
       321.26133             29.9395               22.59        
