# Yb
# Form Factors from Chantler Tables
# DOI: https://dx.doi.org/10.18434/T4HS32
# automatically retrived 2019-02-28 using URL https://physics.nist.gov/cgi-bin/ffast/ffast.pl

# For f_rel the second term, which is 3/5th of the Cromer-Liberman value, is used as suggested by Chantler.
# Real and imaginary part of the formfactors are: f'(E)=f1(E)+f_rel+f_NT and f''(E)=f2(E)
# see also original publication:  https://doi.org/10.1063/1.555974

# Z = 70
# f_rel = -0.7488 e/atom  (Relativistic correction estimate)
# f_NT = -0.015534 e/atom (Nuclear Thomson correction)


#        E (eV)            f1 (e/atom)          f2 (e/atom)     
         6.174               8.70177                0.0         
         6.2685              8.61958                0.0         
         6.2937              8.53448                0.0         
         6.3315               8.6115              0.15997       
         6.426               8.66995              0.16048       
         10.69               8.08034              0.24028       
        11.42761             7.90296              0.26322       
        12.21612             7.68974              0.28998       
        13.05903             7.43114              0.32108       
        13.9601              7.11351               0.3571       
        14.92335             6.71672              0.39875       
        15.95306             6.20942              0.44685       
        17.05382             5.53952              0.50232       
        18.23053             4.61228              0.56624       
        19.48844             3.33375              0.63982       
        20.83314             0.989324             0.72443       
        22.27063             -4.40734             0.82162       
         22.932              -11.2079             0.86864       
         23.283              -23.2927             0.89418       
        23.3766              -38.3698             0.90106       
         23.517              -21.8016              30.895       
        23.8073              -8.64846              29.627       
         23.868              -7.13978              29.371       
        25.45001              8.7862               23.655       
        27.20606             14.2828               18.939       
        29.08327             16.6838               15.192       
        31.09002             17.6344                12.3        
        33.23523             17.8325               10.127       
        35.52846             17.6392               8.5366       
        37.97993             17.2551               7.4086       
        40.60054             16.7932               6.6435       
        43.40198             16.3169               6.1631       
        46.39671             15.8609               5.9074       
        49.59809             15.4428               5.8318       
        53.02035             15.0639               5.9031       
        53.8295              14.9722               5.937        
        54.0459              14.9329               5.947        
        54.3705              14.9244               6.0019       
         55.182              14.8735               6.0455       
        56.67876              14.769               6.1379       
        60.58959              14.537               6.4395       
        64.77028             14.3639               6.8326       
        69.23942             14.2565               7.3074       
        74.01695             14.2383               7.856        
        79.12411             14.2782               8.4722       
        84.58368             14.4017               9.1509       
        90.41995             14.6183               9.8876       
        96.65893             14.9408               10.679       
         100.0               17.1539               11.101       
         100.5               17.1878               11.165       
        101.0025             17.2224               11.228       
       101.50751             17.2578               11.292       
       102.01505              17.294               11.356       
       102.52513              17.331               11.42        
       103.03775             17.3688               11.484       
       103.55294             17.4075               11.549       
        104.0707              17.447               11.614       
       104.59106             17.4874               11.679       
       105.11401             17.5286               11.745       
       105.63958             17.5708               11.811       
       106.16778             17.6138               11.877       
       106.69862             17.6578               11.943       
       107.23211             17.7027               12.01        
       107.76827             17.7485               12.077       
       108.30712             17.7954               12.144       
       108.84865             17.8432               12.211       
       109.39289             17.8921               12.279       
       109.93986              17.942               12.347       
       110.48956             17.9929               12.415       
       111.04201              18.045               12.483       
       111.59722             18.0981               12.552       
        112.1552             18.1524               12.621       
       112.71598             18.2078               12.69        
       113.27956             18.2644               12.759       
       113.84596             18.3222               12.829       
       114.41519             18.3813               12.899       
       114.98726             18.4416               12.969       
        115.5622             18.5032               13.039       
       116.14001             18.5662               13.11        
       116.72071             18.6305               13.18        
       117.30431             18.6962               13.251       
       117.89083             18.7634               13.323       
       118.48029             18.8325               13.381       
       119.07269             18.9028               13.41        
       119.66805             18.9727               13.438       
       120.26639             19.0423               13.466       
       120.86772             19.1115               13.494       
       121.47206             19.1804               13.521       
       122.07942             19.2489               13.548       
       122.68982             19.3172               13.575       
       123.30327             19.3852               13.601       
       123.91979             19.4528               13.627       
       124.53939             19.5202               13.653       
       125.16208             19.5873               13.679       
       125.78789             19.6541               13.704       
       126.41683             19.7206               13.729       
       127.04892             19.7869               13.753       
       127.68416             19.8529               13.777       
       128.32258             19.9186               13.801       
       128.96419              19.984               13.825       
       129.60902             20.0492               13.848       
       130.25706             20.1141               13.87        
       130.90835             20.1787               13.893       
       131.56289              20.243               13.915       
        132.2207             20.3071               13.937       
       132.88181             20.3708               13.958       
       133.54621             20.4343               13.979       
       134.21395             20.4974                14.0        
       134.88502             20.5602               14.02        
       135.55944             20.6227               14.04        
       136.23724             20.6849               14.06        
       136.91842             20.7467               14.079       
       137.60302             20.8082               14.098       
       138.29103             20.8693               14.116       
       138.98249              20.93                14.134       
        139.6774             20.9904               14.152       
       140.37579             21.0503               14.17        
       141.07766             21.1098               14.187       
       141.78305             21.1688               14.203       
       142.49197             21.2274               14.219       
       143.20443             21.2855               14.235       
       143.92045              21.343               14.251       
       144.64005             21.4001               14.266       
       145.36325             21.4566               14.281       
       146.09007             21.5125               14.295       
       146.82052             21.5677               14.309       
       147.55462             21.6223               14.323       
       148.29239             21.6763               14.336       
       149.03386             21.7295               14.348       
       149.77903              21.782               14.361       
       150.52792             21.8336               14.373       
       151.28056             21.8844               14.384       
       152.03696             21.9343               14.396       
       152.79715             21.9833               14.406       
       153.56113             22.0312               14.417       
       154.32894             22.0781               14.427       
       155.10058             22.1238               14.436       
       155.87609             22.1683               14.446       
       156.65547             22.2115               14.454       
       157.43875             22.2533               14.463       
       158.22594             22.2936               14.471       
       159.01707             22.3323               14.478       
       159.81215             22.3693               14.486       
       160.61121             22.4044               14.492       
       161.41427             22.4376               14.499       
       162.22134             22.4685               14.505       
       163.03245             22.4987               14.51        
       163.84761             22.5247               14.515       
       164.66685              22.548               14.52        
       165.49018             22.5681               14.525       
       166.31763             22.5849               14.528       
       167.14922             22.5979               14.532       
       167.98497             22.6067               14.535       
       168.82489             22.6109               14.538       
       169.66902             22.6099               14.54        
       170.51736              22.603               14.542       
       171.36995             22.5894               14.544       
        172.2268             22.5682               14.545       
       173.08793             22.5381               14.545       
       173.95337             22.4976               14.546       
       174.82314             22.4448               14.545       
       175.69726             22.3773               14.545       
       176.57574             22.2918               14.544       
       177.45862             22.1839               14.543       
       178.34591             22.0474               14.541       
       179.23764             21.8733               14.539       
       180.13383             21.6475               14.536       
        181.0345             21.3465               14.533       
       181.93967             20.9273               14.53        
       182.84937              20.296               14.526       
       183.76362             19.1799               14.522       
       184.68244              15.649               14.517       
       184.76613             14.5455               14.517       
       185.03387             14.7266                21.9        
       185.60585             18.9116               21.659       
       186.53388             21.1444               21.285       
       187.46655             22.3655               20.93        
       188.40388             23.1919               20.593       
        189.3459             23.7954               20.272       
       190.29263             24.2488               19.967       
       191.24409             24.5883               19.677       
       192.20031             24.8323               19.401       
       193.16131             24.9873               19.139       
       194.12712             25.0483               18.889       
       195.09776             24.9927               18.652       
       196.07325             24.7576               18.425       
       197.05361             24.1288               18.21        
       197.91478             21.9002               18.03        
       198.03888             20.3066               18.005       
       198.28522             22.0937               22.599       
       199.02907             24.7765               22.28        
       200.02422             26.1333               21.873       
       201.02434             26.9668               21.486       
       202.02946             27.5734               21.117       
       203.03961             28.0466               20.766       
       204.05481              28.429               20.431       
       205.07508             28.7451               20.116       
       206.10046             29.0112               19.819       
       207.13096             29.2382               19.539       
       208.16661             29.4338               19.275       
       209.20745             29.6038               19.025       
       210.25348             29.7524               18.789       
       211.30475             29.8831               18.565       
       212.36128             29.9985               18.354       
       213.42308             30.1008               18.153       
        214.4902             30.1918               17.962       
       215.56265             30.2727               17.781       
       216.64046             30.3448               17.609       
       217.72366             30.4088               17.445       
       218.81228             30.4655               17.289       
       219.90634             30.5158               17.144       
       221.00588             30.5614               17.007       
        222.1109             30.6032               16.878       
       223.22146             30.6421               16.756       
       224.33757             30.6786               16.642       
       225.45925             30.7131               16.533       
       226.58655             30.7462               16.43        
       227.71948             30.7781               16.333       
       228.85808              30.809               16.241       
       230.00237             30.8391               16.152       
       231.15238             30.8687               16.068       
       232.30814             30.8978               15.988       
       233.46969             30.9266               15.912       
       234.63703             30.9551               15.838       
       235.81022             30.9835               15.768       
       236.98927             31.0118                15.7        
       238.17422              31.04                15.635       
       239.36509             31.0681               15.573       
       240.56191             31.0963               15.512       
       241.76472             31.1245               15.454       
       242.97355             31.1527               15.398       
       244.18841              31.181               15.343       
       245.40936             31.2093               15.29        
        246.6364             31.2377               15.239       
       247.86959             31.2661               15.189       
       249.10893             31.2946               15.141       
       250.35448             31.3231               15.094       
       251.60625             31.3516               15.048       
       252.86428             31.3802               15.003       
        254.1286             31.4087               14.959       
       255.39925             31.4373               14.916       
       256.67624             31.4658               14.875       
       257.95962             31.4943               14.834       
       259.24942             31.5228               14.794       
       260.54567             31.5512               14.754       
        261.8484             31.5795               14.716       
       263.15764             31.6077               14.678       
       264.47343             31.6358               14.641       
       265.79579             31.6638               14.604       
       267.12477             31.6917               14.568       
        268.4604             31.7194               14.533       
        269.8027             31.7469               14.498       
       271.15171             31.7742               14.464       
       272.50747             31.8013               14.43        
       273.87001             31.8282               14.397       
       275.23936             31.8549               14.364       
       276.61556             31.8812               14.332       
       277.99863             31.9073                14.3        
       279.38863             31.9331               14.269       
       280.78557             31.9586               14.238       
        282.1895             31.9838               14.207       
       283.60044             32.0085               14.177       
       285.01845             32.0329               14.147       
       286.44354             32.0569               14.117       
       287.87576             32.0805               14.088       
       289.31514             32.1036               14.059       
       290.76171             32.1262               14.03        
       292.21552             32.1484               14.002       
        293.6766              32.17                13.974       
       295.14498              32.191               13.946       
       296.62071             32.2115               13.919       
       298.10381             32.2313               13.892       
       299.59433             32.2504               13.865       
        301.0923             32.2689               13.839       
       302.59776             32.2865               13.813       
       304.11075             32.3034               13.787       
        305.6313             32.3194               13.761       
       307.15946             32.3345               13.736       
       308.69526             32.3486               13.711       
       310.23873             32.3616               13.686       
       311.78993             32.3735               13.662       
       313.34888              32.384               13.638       
       314.91562             32.3932               13.614       
        316.4902             32.4009               13.59        
       318.07265             32.4068               13.567       
       319.66301             32.4109               13.544       
       321.26133             32.4128               13.521       
       322.86764             32.4122               13.499       
       324.48197             32.4089               13.477       
       326.10438             32.4022               13.455       
       327.73491             32.3917               13.433       
       329.37358             32.3764               13.412       
       331.02045             32.3552               13.391       
       332.67555             32.3265               13.37        
       334.33893              32.288               13.349       
       336.01062             32.2355               13.329       
       337.69068             32.1621               13.309       
