# Zn
# Form Factors from Chantler Tables
# DOI: https://dx.doi.org/10.18434/T4HS32
# automatically retrived 2019-02-28 using URL https://physics.nist.gov/cgi-bin/ffast/ffast.pl

# For f_rel the second term, which is 3/5th of the Cromer-Liberman value, is used as suggested by Chantler.
# Real and imaginary part of the formfactors are: f'(E)=f1(E)+f_rel+f_NT and f''(E)=f2(E)
# see also original publication:  https://doi.org/10.1063/1.555974

# Z = 30
# f_rel = -0.0954 e/atom  (Relativistic correction estimate)
# f_NT = -0.0075516 e/atom (Nuclear Thomson correction)


#        E (eV)            f1 (e/atom)          f2 (e/atom)     
         7.938               1.89392                0.0         
         8.0595              1.58428                0.0         
         8.0919              1.24074                0.0         
         8.1405              1.56676              0.66117       
         8.262               1.83711              0.67285       
         10.69               2.18614              0.91642       
        11.42761             2.18313              0.99609       
        12.21612             2.17165               1.0846       
        13.05903             2.15396               1.1832       
        13.9601              2.13164               1.293        
        14.92335             2.10599               1.4153       
        15.95306             2.07822               1.5516       
        17.05382             2.04961               1.7033       
        18.23053             2.02156               1.8717       
        19.48844             1.99571               2.0584       
        20.83314             1.97391               2.2648       
        22.27063             1.95833               2.4922       
        23.8073              1.95148               2.7417       
        25.45001              1.9198               3.0145       
        27.20606             1.93967               3.3112       
        29.08327             1.97834               3.6322       
        31.09002              2.0404               3.9774       
        33.23523             2.13183               4.3457       
        35.52846             2.25682               4.7295       
        37.97993             2.41567               5.1247       
        40.60054              2.609                5.5282       
        43.40198             2.83737               5.9369       
        46.39671             3.10102               6.3475       
        49.59809             3.39971               6.7568       
        53.02035             3.73279               7.1617       
        56.67876             4.09943               7.5593       
        60.58959             4.50246               7.9471       
        64.77028             4.96402               8.3109       
        69.23942             5.42968               8.6353       
        74.01695             5.88267               8.9287       
        79.12411             6.28468               9.1879       
        84.58368              6.3847               9.4104       
         84.868              6.35349               9.4205       
         86.167               5.9048               9.4654       
        86.5134              5.22864               9.4769       
         87.033              6.04111               10.902       
         88.332              6.84154               10.895       
        90.41995             7.44473               10.884       
        96.65893             8.49813               10.847       
        103.3284             9.27197               10.845       
        110.4581              9.9677               10.871       
        118.0797             10.6284               10.904       
        126.2272             11.2517               10.936       
        133.182              11.6453               10.958       
        134.9368             11.6353               10.963       
        135.2205             11.6068               10.964       
        135.7641              11.414               10.965       
        136.5795             11.7133               11.429       
        138.618              12.0794               11.441       
        144.2475             12.7012               11.472       
        154.2005             13.6448               11.437       
        164.8404             14.4977               11.07        
        176.2144             15.2357               10.696       
        188.3732             15.8898               10.32        
        201.3709             16.4779               9.9442       
        215.2655             17.0117               9.5693       
        230.1188             17.4994               9.1959       
        245.997              17.9464               8.8239       
        262.9708              18.359               8.4529       
        281.1158             18.7336               8.0824       
        300.5128             19.0739               7.7122       
        321.2482              19.38                7.3424       
        343.4143             19.6517               6.9736       
        367.1099             19.8882               6.6052       
        392.4405              20.086               6.2364       
        419.5189             20.2402               5.8703       
        448.4657             20.3509               5.5099       
        479.4098             20.4139               5.1581       
        512.4891             20.4261               4.8174       
        547.8508             20.3829               4.4899       
        585.6525             20.2777               4.177        
        626.0625             20.0994               3.8799       
        669.2609             19.8305               3.5993       
        715.4399             19.4417               3.3356       
        764.8052             18.8803               3.0889       
        817.5768             18.0422               2.859        
        873.9896             16.6852               2.6453       
         900.0               17.3931               2.5564       
         904.5                17.263               2.5415       
        909.0225             17.1262               2.5268       
       913.56761             16.9821               2.5121       
       918.13545             16.8299               2.4976       
       922.72613              16.669               2.4831       
       927.33976             16.4984               2.4687       
       931.97646             16.3171               2.4544       
       936.63634             16.1239               2.4401       
       941.31952             15.9173               2.426        
       946.02612             15.6957               2.4119       
       950.75625             15.4569               2.3979       
       955.51003             15.1986               2.384        
       960.28758             14.9176               2.3702       
       965.08902             14.6101               2.3565       
       969.91446             14.2713               2.3428       
       974.76404             13.8946               2.3292       
       979.63786             13.4716               2.3157       
       984.53605             12.9904               2.3023       
       989.45873             12.4339               2.289        
       994.40602             11.7757               2.2757       
       999.37805             10.9729               2.2625       
       1004.3749             9.94316               2.2458       
       1009.3968             8.51478               2.2287       
       1014.4438             6.15159               2.2118       
        1019.516             -5.07956              2.195        
        1019.629             -8.22555              2.1946       
       1019.7711             -8.40332              12.572       
       1024.6136              5.3677               12.469       
       1029.7367             7.32086               12.362       
       1034.8853             7.99378               12.256       
       1040.0598             7.35582               12.151       
       1042.7279             1.91437               12.098       
        1042.872             1.85341               17.202       
       1045.2601             7.97659               17.134       
       1050.4864             10.5445               16.987       
       1055.7388             11.9953               16.842       
       1061.0175              13.075               16.697       
       1066.3226             13.9517               16.554       
       1071.6542             14.6953               16.412       
       1077.0125             15.3428               16.272       
       1082.3975             15.9165               16.132       
       1087.8095             16.4313               15.994       
       1093.2486             16.8974               15.857       
       1098.7148             17.3222               15.722       
       1104.2084             17.7116               15.587       
       1109.7294             18.0696               15.454       
       1115.2781             18.3997               15.321       
       1120.8545             18.7044               15.19        
       1126.4587             18.9856               15.06        
        1132.091             19.2447               14.932       
       1137.7515             19.4825               14.804       
       1143.4402             19.6995               14.677       
       1149.1574             19.8953               14.552       
       1154.9032             20.0688               14.427       
       1160.6777             20.2177               14.304       
       1166.4811             20.3376               14.182       
       1172.3135             20.4199               14.061       
       1178.1751             20.4469               13.941       
        1184.066             20.3734               13.822       
       1189.9863             20.0079               13.703       
       1192.4542             19.4199               13.655       
       1194.7459              19.467               15.44        
       1195.9362             19.9205               15.416       
       1201.9159             20.8465               15.294       
       1207.9255             21.3413               15.174       
       1213.9651             21.7172               15.055       
        1220.035             22.0337               14.937       
       1226.1351              22.313               14.82        
       1232.2658             22.5663               14.704       
       1238.4271             22.7996               14.589       
       1244.6193              23.017               14.474       
       1250.8424             23.2211               14.361       
       1257.0966             23.4138               14.249       
       1263.3821             23.5968               14.139       
        1269.699             23.7712               14.029       
       1276.0475             23.9379               13.921       
       1282.4277             24.0975               13.813       
       1288.8399             24.2507               13.706       
        1295.284             24.3978               13.601       
       1301.7605             24.5392               13.496       
       1308.2693             24.6754               13.392       
       1314.8106             24.8065               13.289       
       1321.3847             24.9329               13.187       
       1327.9916             25.0546               13.086       
       1334.6316             25.1727               12.989       
       1341.3047             25.2874               12.892       
       1348.0112             25.3986               12.796       
       1354.7513             25.5066               12.701       
        1361.525             25.6115               12.607       
       1368.3327             25.7138               12.515       
       1375.1743             25.8134               12.423       
       1382.0502             25.9104               12.333       
       1388.9605              26.005               12.243       
       1395.9053             26.0973               12.154       
       1402.8848             26.1872               12.065       
       1409.8992              26.275               11.978       
       1416.9487             26.3606               11.891       
       1424.0335             26.4442               11.805       
       1431.1536             26.5257               11.719       
       1438.3094             26.6054               11.634       
       1445.5009             26.6833               11.55        
       1452.7284             26.7594               11.467       
       1459.9921             26.8337               11.385       
        1467.292             26.9065               11.303       
       1474.6285             26.9776               11.222       
       1482.0016             27.0472               11.141       
       1489.4117             27.1153               11.061       
       1496.8587              27.182               10.982       
        1504.343             27.2473               10.903       
       1511.8647             27.3113               10.825       
        1519.424             27.3741               10.748       
       1527.0212             27.4356               10.671       
       1534.6563              27.496               10.595       
       1542.3295             27.5554               10.52        
       1550.0412             27.6139               10.445       
       1557.7914             27.6711               10.369       
       1565.5804              27.727               10.294       
       1573.4083             27.7815               10.219       
       1581.2753             27.8347               10.144       
       1589.1817             27.8868               10.07        
       1597.1276             27.9377               9.9972       
       1605.1132             27.9874               9.9245       
       1613.1388             28.0361               9.8523       
       1621.2045             28.0838               9.7807       
       1629.3105             28.1304               9.7092       
       1637.4571             28.1761               9.6375       
       1645.6443             28.2207               9.5663       
       1653.8726             28.2644               9.4957       
       1662.1419             28.3071               9.4256       
       1670.4526             28.3489               9.3561       
       1678.8049             28.3898               9.287        
       1687.1989             28.4298               9.2185       
       1695.6349              28.469               9.1505       
       1704.1131             28.5073               9.083        
       1712.6337             28.5449               9.016        
       1721.1968             28.5816               8.9495       
       1729.8028             28.6175               8.8835       
       1738.4518             28.6527               8.818        
       1747.1441             28.6872               8.753        
       1755.8798             28.7209               8.6884       
       1764.6592             28.7539               8.6244       
       1773.4825             28.7862               8.5608       
       1782.3499             28.8179               8.4977       
       1791.2617             28.8489               8.435        
        1800.218             28.8793               8.3728       
       1809.2191              28.909               8.3111       
       1818.2652             28.9381               8.2499       
       1827.3565             28.9666               8.1891       
       1836.4933             28.9946               8.1287       
       1845.6757              29.022               8.0688       
       1854.9041             29.0488               8.0093       
       1864.1786              29.075               7.9503       
       1873.4995             29.1008               7.8917       
        1882.867              29.126               7.8335       
       1892.2814             29.1507               7.7758       
       1901.7428              29.175               7.7185       
       1911.2515             29.1987               7.6616       
       1920.8077              29.222               7.6052       
       1930.4118             29.2448               7.5491       
       1940.0638             29.2672               7.4935       
       1949.7642             29.2892               7.4383       
        1959.513             29.3107               7.3835       
       1969.3105             29.3318               7.3291       
       1979.1571             29.3526               7.2751       
       1989.0529              29.373               7.2216       
       1998.9981              29.393               7.1684       
       2008.9931             29.4126               7.1156       
       2019.0381              29.432               7.0632       
       2029.1333              29.451               7.0112       
        2039.279             29.4697               6.9596       
       2049.4754             29.6021               6.906        
       2059.7227             29.6199               6.8528       
       2070.0213             29.6373                6.8         
       2080.3714             29.6541               6.7476       
       2090.7733             29.7278               6.695        
       2101.2272             29.7436               6.6423       
       2111.7333             29.7589                6.59        
        2122.292             29.7737               6.538        
       2132.9034             29.7879               6.4865       
        2143.568             29.8017               6.4354       
       2154.2858             29.8149               6.3847       
       2165.0572             29.8278               6.3345       
       2175.8825             29.8401               6.2846       
       2186.7619             29.8521               6.2351       
       2197.6957             29.8637               6.186        
       2208.6842             29.8748               6.1373       
       2219.7276             29.8856               6.089        
       2230.8263              29.896               6.0411       
       2241.9804             29.9061               5.9935       
       2253.1903             29.9158               5.9464       
       2264.4562             29.9252               5.8996       
       2275.7785             29.9343               5.8532       
       2287.1574              29.943               5.8072       
       2298.5932             29.9515               5.7616       
       2310.0862             29.9596               5.7163       
       2321.6366             29.9675               5.6714       
       2333.2448             29.9751               5.6269       
        2344.911             29.9824               5.5827       
       2356.6356             29.9895               5.5389       
       2368.4187             29.9964               5.4955       
       2380.2608              30.003               5.4524       
       2392.1621             30.0496               5.4093       
        2404.123             30.0559               5.3661       
       2416.1436             30.0619               5.3232       
       2428.2243             30.0676               5.2806       
       2440.3654              30.073               5.2385       
       2452.5672             30.0782               5.1966       
       2464.8301             30.0831               5.1551       
       2477.1542             30.0877               5.114        
        2489.54              30.0921               5.0732       
       2501.9877             30.0962               5.0327       
       2514.4976             30.1001               4.9925       
       2527.0701             30.1038               4.9527       
       2539.7055             30.1073               4.9133       
